,AF3,AF4,Fp1,Fp2,AF7,AF8
0,-0.00548573024570942,-0.0097438907250762,-0.0219354163855314,-0.00047677694237791,-0.0157904084771872,-0.0223967805504799
1,-0.0106068728491664,-0.0138533869758248,-0.0265265461057425,-0.000483715441077948,-0.0183368157595396,-0.0234526339918375
2,-0.00998584181070328,-0.00881583616137505,-0.0264243446290493,-0.00049720355309546,-0.0210212618112564,-0.0154860215261579
3,-0.00726970843970776,-0.00111780746374279,-0.0247945971786976,-0.000512218335643411,-0.0235708672553301,-0.00588541338220239
4,-0.0071427240036428,0.001298260060139,-0.025782385841012,-0.000523012829944491,-0.0263343565165997,-0.00278554623946548
5,-0.0105012506246567,-0.00320319249294698,-0.0290735941380262,-0.000526189862284809,-0.0287036765366793,-0.00710903760045767
6,-0.0157424807548523,-0.0115102455019951,-0.0319905467331409,-0.000522423768416047,-0.0300663243979216,-0.0150776635855436
7,-0.0182421822100878,-0.0171502679586411,-0.0303573124110699,-0.000515962776262313,-0.0293599627912045,-0.0202421750873327
8,-0.0156742725521326,-0.0168315041810274,-0.023934381082654,-0.000512254016939551,-0.027520639821887,-0.0198965035378933
9,-0.0128792626783252,-0.0153999431058764,-0.0200350265949965,-0.000515016261488199,-0.0280646644532681,-0.0193636491894722
10,-0.0125809805467725,-0.0160114541649818,-0.0219812393188477,-0.000524332281202078,-0.0306274928152561,-0.0211823303252459
11,-0.0119290128350258,-0.0163366682827473,-0.0250848606228828,-0.000536736741196364,-0.0316060297191143,-0.0218234118074179
12,-0.00848147179931402,-0.0138909425586462,-0.023832131177187,-0.000547180126886815,-0.0287249535322189,-0.0183931291103363
13,-0.00307860551401973,-0.00904591847211123,-0.016687074676156,-0.000551760196685791,-0.0220297146588564,-0.0115835992619395
14,0.000125022779684514,-0.00634116725996137,-0.00805192813277245,-0.00054974592057988,-0.0144696589559317,-0.00663104839622974
15,0.000770929967984557,-0.00682117184624076,-0.000403888698201627,-0.000543847214430571,-0.00759765133261681,-0.0053403377532959
16,0.00277705118060112,-0.00639056460931897,0.00804695207625628,-0.000538654217962176,-0.000350590620655566,-0.00424023764207959
17,0.0055630118586123,-0.00492187635973096,0.0152258677408099,-0.000538140127900988,0.00592229561880231,-0.00342487310990691
18,0.007246233522892,-0.00370888016186655,0.0187331382185221,-0.000543585803825408,0.00947433430701494,-0.00330440350808203
19,0.00954192504286766,-0.000888264563400298,0.020884832367301,-0.000553008052520454,0.0116713820025325,-0.000780671951361001
20,0.0134032191708684,0.00455257156863809,0.0240813903510571,-0.000562334782443941,0.0140872113406658,0.00562931317836046
21,0.015511667355895,0.00883993227034807,0.0256506241858006,-0.000567638489883393,0.0154295545071363,0.0119202127680182
22,0.0140707939863205,0.0090806856751442,0.0234517473727465,-0.000567204435355961,0.0147213321179152,0.0148974610492587
23,0.0115336766466498,0.0070663564838469,0.0198712293058634,-0.000562348053790629,0.0134677942842245,0.0158910248428583
24,0.00793321151286364,0.00248863594606519,0.0145243452861905,-0.000556599348783493,0.0121534327045083,0.0138276442885399
25,0.00340527505613863,-0.00385129149071872,0.00752384588122368,-0.000553752295672894,0.0113296648487449,0.00960416905581951
26,0.000865539303049445,-0.00754173425957561,0.00279405317269266,-0.000555855047423393,0.012448862195015,0.00808133650571108
27,0.00112162926234305,-0.00780388386920094,0.00200100801885128,-0.000562204804737121,0.015448042191565,0.00953934248536825
28,0.00236775306984782,-0.0076859868131578,0.00339961261488497,-0.000569834548514336,0.0192152261734009,0.0101579688489437
29,0.003284145379439,-0.00898947101086378,0.00498143956065178,-0.000575172365643084,0.0226042587310076,0.00793284364044666
30,0.00515129137784243,-0.00937576312571764,0.00739988498389721,-0.000575947866309434,0.0250480603426695,0.00589499529451132
31,0.00941122137010098,-0.00616252748295665,0.0114835668355227,-0.00057233078405261,0.0264818016439676,0.00788721162825823
32,0.0151436775922775,-0.000421501550590619,0.0160433501005173,-0.000566735165193677,0.0272740572690964,0.0135625619441271
33,0.0211954452097416,0.00611938768997788,0.0211097225546837,-0.000562452478334308,0.0286322310566902,0.0212573502212763
34,0.0259170457720757,0.0112562086433172,0.0264851227402687,-0.000561884080525488,0.0307749677449465,0.0282239895313978
35,0.0259871520102024,0.0107180317863822,0.0287680104374886,-0.000565322232432663,0.0316850505769253,0.0292692612856627
36,0.021186226978898,0.00366481579840183,0.0263328533619642,-0.000570894568227232,0.030355092138052,0.0229001864790916
37,0.0161114577203989,-0.00464652758091688,0.0226168408989906,-0.000575647398363799,0.0287612844258547,0.0144116105511785
38,0.0153333405032754,-0.00734709156677127,0.0221166331321001,-0.000577145372517407,0.0290967654436827,0.0111176297068596
39,0.0195984151214361,-0.00182559620589018,0.0258236173540354,-0.000574723002500832,0.0313554517924786,0.0159525629132986
40,0.0246902871876955,0.00663540232926607,0.0297332983464003,-0.000569748634006828,0.0336823463439941,0.023537689819932
41,0.0270051266998053,0.0123113198205829,0.0311326328665018,-0.000564810296054929,0.0353292897343636,0.0279209446161985
42,0.0262432899326086,0.0138588175177574,0.0301711764186621,-0.000562303466722369,0.0363286025822163,0.0281818341463804
43,0.022583020851016,0.011319980956614,0.0263343546539545,-0.00056319049326703,0.035784013569355,0.0255672968924046
44,0.0195688214153051,0.00912142544984818,0.023676473647356,-0.00056657160166651,0.0354222171008587,0.0252947434782982
45,0.0195686649531126,0.0102000711485744,0.0255702380090952,-0.000570250849705189,0.0368215590715408,0.0292784441262484
46,0.017429256811738,0.00892883166670799,0.0258159358054399,-0.000571948534343392,0.0360800549387932,0.0293317995965481
47,0.00915795285254717,0.00100092962384224,0.0186856929212809,-0.000570493342820555,0.0301392357796431,0.0196805242449045
48,0.000779896625317633,-0.00736360298469663,0.010353147983551,-0.0005663734045811,0.0239015519618988,0.00815248396247625
49,-0.000754054810386151,-0.0090787373483181,0.00887434743344784,-0.000561393157113343,0.0230958163738251,0.00449382839724422
50,0.0037596330512315,-0.00493935262784362,0.0135342460125685,-0.000557664956431836,0.0269371122121811,0.00883963704109192
51,0.0123351402580738,0.00312749459408224,0.0225845742970705,-0.000556497136130929,0.0331809036433697,0.0187986232340336
52,0.0203587580472231,0.0100771747529507,0.0319465100765228,-0.000557762163225561,0.0391190312802792,0.0281583461910486
53,0.0204108580946922,0.00813597626984119,0.033598642796278,-0.000560046231839806,0.0410435125231743,0.0276291314512491
54,0.0133705083280802,-0.000680977653246373,0.0274741593748331,-0.000561455613933504,0.03934570774436,0.0187002923339605
55,0.00674440246075392,-0.00740770623087883,0.0206940807402134,-0.000560623768251389,0.0376300737261772,0.0107608940452337
56,0.00490026455372572,-0.00779291242361069,0.0177236199378967,-0.000557384511921555,0.0380873866379261,0.0085860462859273
57,0.00511116813868284,-0.00575418444350362,0.0164845362305641,-0.000552785350009799,0.0394942685961723,0.00846988148987293
58,0.00309491972438991,-0.00613703485578299,0.0137887531891465,-0.000548473850358278,0.0397054888308048,0.00586596177890897
59,0.000847966352012008,-0.00631056586280465,0.012797437608242,-0.000545815157238394,0.0398394204676151,0.00458982866257429
60,0.00149520102422684,-0.00262601207941771,0.0165197141468525,-0.000545211078133434,0.0413654632866383,0.0089191235601902
61,0.00149391812738031,0.000965428829658777,0.0194172114133835,-0.000545958231668919,0.0416474863886833,0.0137273296713829
62,-0.00271295988932252,0.000253184232860804,0.0163407027721405,-0.000546681345440447,0.038529247045517,0.0136707434430718
63,-0.00685946410521865,-0.00108102557715029,0.0121237570419908,-0.000546079885680228,0.0350048094987869,0.0122250467538834
64,-0.00582037912681699,0.00157877337187529,0.0130927488207817,-0.000543584930710495,0.0345499776303768,0.013854593038559
65,0.000386906351195648,0.00814675819128752,0.0191437471657991,-0.000539597182068974,0.0372351855039597,0.0186967086046934
66,0.00877640396356583,0.0161419436335564,0.0267027616500854,-0.000535215658601373,0.0410635024309158,0.024758767336607
67,0.0146052250638604,0.0212613735347986,0.0312920548021793,-0.00053163303527981,0.0431488528847694,0.028165215626359
68,0.0137990387156606,0.0191763769835234,0.0293510463088751,-0.000529529177583754,0.0413126610219479,0.0252121575176716
69,0.00786198768764734,0.0115941669791937,0.0224124658852816,-0.000528769101947546,0.0366243943572044,0.0179414488375187
70,0.00294377794489264,0.00586162786930799,0.0163805484771729,-0.00052853359375149,0.0325115285813808,0.0135039296001196
71,0.00265893270261586,0.00612297840416431,0.0148244816809893,-0.000527781608980149,0.0309603549540043,0.0156007278710604
72,0.00547027448192239,0.0106152510270476,0.0170618779957294,-0.000525785144418478,0.0313481278717518,0.022330567240715
73,0.00752872275188565,0.0153216663748026,0.0201569180935621,-0.00052246474660933,0.0317790023982525,0.0300201140344143
74,0.00621005892753601,0.017073592171073,0.0207625143229961,-0.00051837571663782,0.0303979925811291,0.0349553488194942
75,0.00295514147728682,0.0164421182125807,0.0187408290803432,-0.000514383718837053,0.0267519131302834,0.0358351431787014
76,0.00258020148612559,0.0171009749174118,0.018191285431385,-0.000511216698214412,0.0234131179749966,0.0352440699934959
77,0.00629270123317838,0.0193770211189985,0.0205823946744204,-0.000509124365635216,0.0223943330347538,0.0342624112963676
78,0.0099027743563056,0.0197568610310555,0.0220439080148935,-0.000507800257764757,0.0215639490634203,0.0305130835622549
79,0.0102646574378014,0.016358008608222,0.0191685315221548,-0.000506577838677913,0.0186294857412577,0.022657560184598
80,0.00963371340185404,0.012255628593266,0.0144805731251836,-0.000504780327901244,0.0152377802878618,0.0144590893760324
81,0.0121757667511702,0.0122342873364687,0.0137189328670502,-0.000502041599247605,0.0147376842796803,0.0118018323555589
82,0.0152556775137782,0.0136724691838026,0.0152856335043907,-0.000498450535815209,0.0163073316216469,0.0126809468492866
83,0.0141843007877469,0.0118446424603462,0.0144301308318973,-0.000494469655677676,0.0164443515241146,0.0121850157156587
84,0.0108904391527176,0.00912445690482855,0.0127698825672269,-0.000490689184516668,0.0145666524767876,0.0119204586371779
85,0.00822174642235041,0.00858991872519255,0.011958833783865,-0.000487547105876729,0.0117084803059697,0.0138484938070178
86,0.00634221965447068,0.00964680034667253,0.0106521584093571,-0.00048514420632273,0.00873992871493101,0.0166358388960361
87,0.0043516200967133,0.00966223794966936,0.0077516776509583,-0.000483226642245427,0.00629436038434505,0.0176099576056004
88,-0.000157966060214676,0.00500198919326067,0.00137551338411868,-0.000481326715089381,0.00344957271590829,0.0130916107445955
89,-0.00645317230373621,-0.00342933996580541,-0.00739573268219829,-0.000478984817164019,0.000578078208491206,0.00378539809025824
90,-0.009468799456954,-0.00970669090747833,-0.012837884016335,-0.000475950946565717,0.000750083534512669,-0.00406907312572002
91,-0.00681352056562901,-0.0103996451944113,-0.0116463052108884,-0.00047228203038685,0.0051944381557405,-0.00607921369373798
92,-0.0025254487991333,-0.00870461110025644,-0.00780883803963661,-0.00046830321662128,0.0102647626772523,-0.00476658856496215
93,-0.00199326453730464,-0.00985456630587578,-0.00739431660622358,-0.000464456825284287,0.0114745981991291,-0.00542640080675483
94,-0.00280672614462674,-0.0114542124792933,-0.00748454360291362,-0.0004611071490217,0.0110737746581435,-0.00612157676368952
95,3.64438819815405E-05,-0.00817757286131382,-0.0019244528375566,-0.000458382710348815,0.0137072401121259,-0.00230112974531949
96,0.00345319858752191,-0.00329613196663558,0.00553683424368501,-0.000456120644230396,0.0174577217549086,0.00229205540381372
97,0.00389024941250682,-0.00115121668204665,0.00983465276658535,-0.000453937478596345,0.0197224784642458,0.00355352577753365
98,0.00384121155366302,0.00038113264599815,0.01278040651232,-0.000451398082077503,0.0220406912267208,0.00412378553301096
99,0.00409680465236306,0.0020945540163666,0.0146226147189736,-0.000448213395429775,0.0243667215108871,0.00506611261516809
100,0.00394321186468005,0.00393504370003939,0.0143500715494156,-0.000444379460532218,0.0253393184393644,0.00635157246142626
101,0.00573470303788781,0.00948439165949821,0.0151123097166419,-0.000440192059613764,0.0255562718957663,0.0118571436032653
102,0.0092188622802496,0.0182455014437437,0.0179424118250608,-0.000436120782978833,0.025285679847002,0.0212695319205523
103,0.0105115463957191,0.0243470575660467,0.0195119716227055,-0.000432592554716393,0.0240030121058226,0.028383256867528
104,0.00551111297681928,0.0219934470951557,0.0152268894016743,-0.000429781735874712,0.0206213071942329,0.026947807520628
105,-0.00523531576618552,0.0117856515571475,0.00495266448706388,-0.00042750989086926,0.015326639637351,0.0176798794418573
106,-0.0145201282575727,0.0021266785915941,-0.00440194271504879,-0.000425314152380452,0.0112335877493024,0.00924610812216997
107,-0.0186955351382494,-0.00277334591373801,-0.00937060732394457,-0.000422662851633504,0.00944400671869516,0.00519860489293933
108,-0.0191549547016621,-0.0044727623462677,-0.0110505986958742,-0.000419220916228369,0.00903076026588678,0.00341703998856246
109,-0.016703063622117,-0.003484514541924,-0.00933030527085066,-0.000415032816817984,0.0101211881265044,0.00357001321390271
110,-0.0124950017780066,-0.00017396429029759,-0.00494514266029,-0.000410522421589121,0.0123599674552679,0.00540539529174566
111,-0.00968681648373604,0.0023384322412312,-0.00186667614616454,-0.000406296661822125,0.0137310512363911,0.00577569520100951
112,-0.0107818720862269,0.0010230247862637,-0.00328823947347701,-0.000402841513277963,0.0126362219452858,0.00186308054253459
113,-0.0134208323433995,-0.00173685944173485,-0.00617049634456635,-0.000400262419134378,0.0103959143161774,-0.00322394911199808
114,-0.0136639522388577,-0.00238111848011613,-0.00599918328225613,-0.000398208998376504,0.00964945554733276,-0.00536993518471718
115,-0.0115017406642437,-0.00150309491436929,-0.00316642201505601,-0.000396035466110334,0.0108721358701587,-0.00534383021295071
116,-0.00901180040091276,-0.000767212535720319,-0.00014266007929109,-0.000393125897971913,0.012256009504199,-0.00481897639110684
117,-0.00599061092361808,0.000904615910258144,0.00329735828563571,-0.000389221357181668,0.0128649091348052,-0.00226293690502644
118,-0.00139211444184184,0.00541313923895359,0.00834631733596325,-0.000384574173949659,0.0126374382525682,0.00466443365439773
119,0.00347011629492044,0.0115312617272139,0.0134734390303493,-0.000379838049411774,0.0110335098579526,0.0143916429951787
120,0.00745846331119537,0.0176530200988054,0.0174957439303398,-0.000375738716684282,0.00918579194694757,0.0239658337086439
121,0.00949929375201464,0.0222433563321829,0.0197937414050102,-0.000372691138181835,0.00817892979830503,0.0307957120239735
122,0.00673514138907194,0.0213404037058353,0.0176050774753094,-0.000370565743651241,0.00656932685524225,0.0309328660368919
123,0.00141239585354924,0.0166584607213736,0.0131814768537879,-0.000368736044038087,0.00514216627925634,0.0267553552985191
124,0.000170261875609867,0.0154277849942446,0.0131983337923884,-0.000366394815500826,0.00646895496174693,0.0260156951844692
125,0.00275907549075782,0.017200194299221,0.0167893562465906,-0.000362979510100558,0.00905476976186037,0.0279917884618044
126,0.00505714025348425,0.0171448029577732,0.0189681891351938,-0.000358482677256688,0.0105440421029925,0.0272694118320942
127,0.00753335049375892,0.0164772439748049,0.0200634468346834,-0.000353475334122777,0.0118540674448013,0.0255536343902349
128,0.0104820523411036,0.0170955024659634,0.0212608948349953,-0.000348820147337392,0.0136355860158801,0.0260612927377224
129,0.0118217263370752,0.0178738962858915,0.021346116438508,-0.000345217908034101,0.0145857706665993,0.0280732437968254
130,0.011771310120821,0.0186563450843096,0.0211267601698637,-0.00034282638807781,0.0151188857853413,0.0305736605077982
131,0.0114182429388165,0.0188414249569178,0.0222121626138687,-0.000341159728122875,0.017431391403079,0.0318523868918419
132,0.0102182403206825,0.0165307018905878,0.0234809573739767,-0.000339331629220396,0.0214858613908291,0.0292891077697277
133,0.00872272998094559,0.0124955466017127,0.0243504866957664,-0.000336521392455325,0.0260816384106874,0.0239543225616217
134,0.00858522765338421,0.00969291850924492,0.0261335130780935,-0.000332417577737942,0.0305200852453709,0.0200317371636629
135,0.00934644602239132,0.00878036394715309,0.028703298419714,-0.000327398942317814,0.0333220176398754,0.019010953605175
136,0.00965725164860487,0.00871121510863304,0.0307993348687887,-0.00032234750688076,0.0335061587393284,0.019932771101594
137,0.00934355426579714,0.0090763671323657,0.0317779332399368,-0.000318185600917786,0.0317606404423714,0.0217945277690887
138,0.00974281039088964,0.0108295287936926,0.0329165235161781,-0.000315379904350266,0.0300072208046913,0.0245755203068256
139,0.0113476738333702,0.0143661592155695,0.0350050255656242,-0.000313680386170745,0.0292262267321348,0.02837735414505
140,0.0124995363876224,0.017932677641511,0.0359640270471573,-0.000312240299535915,0.0284929424524307,0.0316856727004051
141,0.0126777477562428,0.0203575752675533,0.0347414538264275,-0.000310060975607485,0.0276574622839689,0.0332890525460243
142,0.0123286154121161,0.0211650319397449,0.0323706269264221,-0.000306527566863224,0.027586443349719,0.0326984152197838
143,0.012166652828455,0.0205883774906397,0.031243646517396,-0.000301748048514128,0.029018335044384,0.0306509397923946
144,0.0143248662352562,0.0210368055850267,0.0343998558819294,-0.000296507903840393,0.0326118133962154,0.0302984789013863
145,0.020341670140624,0.0247595943510532,0.0422565154731274,-0.000291858275886625,0.0379440747201443,0.0343272276222706
146,0.0286107081919909,0.0312101300805807,0.0518127530813217,-0.00028855333221145,0.0427538827061653,0.0423194169998169
147,0.0361901447176933,0.0386474765837193,0.0596297159790993,-0.000286639056866989,0.044850405305624,0.0524429269134998
148,0.0410875529050827,0.0451108478009701,0.0637586340308189,-0.000285417947452515,0.043820146471262,0.0621374249458313
149,0.0414785109460354,0.0472178533673286,0.0631835237145424,-0.00028381499578245,0.0406752079725266,0.0669468864798546
150,0.0363978818058968,0.0422033630311489,0.0578211769461632,-0.000280952692264691,0.0367527455091476,0.0635922849178314
151,0.0259804744273424,0.0295433718711138,0.0474338382482529,-0.000276627339189872,0.0317700281739235,0.0520459115505219
152,0.0149038387462497,0.015011508949101,0.0359807945787907,-0.000271427561528981,0.0272041391581297,0.0385627597570419
153,0.0117678930982947,0.00876129046082497,0.0320352651178837,-0.000266426242887974,0.0276034139096737,0.0334569476544857
154,0.0177166610956192,0.0124386074021459,0.0366672798991203,-0.000262607296463102,0.0329338908195496,0.0382286608219147
155,0.0257989913225174,0.0187835022807121,0.0427692122757435,-0.000260333792539313,0.0380976684391499,0.0453335642814636
156,0.030121797695756,0.0215988103300333,0.0447316057980061,-0.000259145977906883,0.0393450558185577,0.0487356409430504
157,0.0306610632687807,0.0210446398705244,0.0431589670479298,-0.00025800138246268,0.037489041686058,0.0487646907567978
158,0.030550017952919,0.0203079879283905,0.041723970323801,-0.00025583224487491,0.0357536263763905,0.0482343696057796
159,0.032027792185545,0.0213220398873091,0.0430103503167629,-0.000252121477387846,0.0361514911055565,0.0489944964647293
160,0.0362104810774326,0.0248390436172485,0.0480150245130062,-0.000247186573687941,0.0390881523489952,0.0521219372749329
161,0.0402475222945213,0.0270312875509262,0.0527057275176048,-0.000242014750256203,0.0423326678574085,0.0532386414706707
162,0.0396990962326527,0.0225935522466898,0.0513130761682987,-0.000237735395785421,0.0428424626588821,0.0459620878100395
163,0.0360498540103436,0.0135985687375069,0.0451147481799126,-0.00023501183022745,0.0412971936166286,0.0325027629733086
164,0.033902034163475,0.00615797424688935,0.0393922030925751,-0.000233680533710867,0.0401890873908997,0.0209392439574003
165,0.0340300165116787,0.00248385593295097,0.0360044986009598,-0.00023283448535949,0.0402625165879726,0.0154225341975689
166,0.0350289084017277,0.00193826365284622,0.0347138345241547,-0.000231308556976728,0.0415305756032467,0.0152607141062617
167,0.0359493941068649,0.00357723282650113,0.0348930805921555,-0.000228306787903421,0.043300349265337,0.0184022895991802
168,0.0344830751419067,0.00449029030278325,0.0329898186028004,-0.000223833674681373,0.0430803224444389,0.0209544599056244
169,0.0301680862903595,0.00338219502009451,0.0274723246693611,-0.000218695335206576,0.0398862920701504,0.0207652896642685
170,0.0268248673528433,0.0038126630242914,0.0231017433106899,-0.000214068029890768,0.0362383909523487,0.0213707108050585
171,0.027947373688221,0.00889242999255657,0.0245612654834986,-0.000210865138797089,0.0355090871453285,0.0267318785190582
172,0.0325534380972385,0.0165402535349131,0.0304272547364235,-0.000209243808058091,0.0378879718482494,0.0354587063193321
173,0.0353885479271412,0.0211493615061045,0.0342411585152149,-0.000208518104045652,0.0390908308327198,0.0420653335750103
174,0.0334343239665031,0.0200282912701368,0.0322156511247158,-0.000207526914891787,0.0365684106945992,0.0431200675666332
175,0.0301314424723387,0.016292879357934,0.0279564317315817,-0.000205259144422598,0.0331833586096764,0.0405009984970093
176,0.0292129814624786,0.0132298758253455,0.0259575210511684,-0.00020139929256402,0.0318967700004578,0.036892794072628
177,0.0285286121070385,0.0089948195964098,0.02425467222929,-0.000196498658624478,0.0312409270554781,0.0304090045392513
178,0.0268483888357878,0.0035236575640738,0.0215950645506382,-0.000191679253475741,0.0298822745680809,0.0218363702297211
179,0.0280156843364239,0.00224136188626289,0.0220548827201128,-0.000188029414857738,0.0294896699488163,0.0181659031659365
180,0.0330894477665424,0.00723828608170152,0.0265590324997902,-0.000186017146916129,0.0298652164638042,0.0220016147941351
181,0.0378945022821426,0.0139468461275101,0.0308143366128206,-0.000185237789992243,0.0286336559802294,0.0283155683428049
182,0.0402500964701176,0.0186959225684404,0.0333715714514256,-0.000184632299351506,0.0258799567818642,0.032969806343317
183,0.0416532792150974,0.0215535052120686,0.0363205447793007,-0.000183058422408067,0.023515161126852,0.0352672226727009
184,0.0427269674837589,0.0223994851112366,0.0392974689602852,-0.000179906433913857,0.022096449509263,0.0336866639554501
185,0.0428765788674355,0.020790733397007,0.040149137377739,-0.00017542731075082,0.0208139065653086,0.0273719746619463
186,0.0387992560863495,0.0140864066779613,0.0344395749270916,-0.000170596351381391,0.0168059878051281,0.0151169737800956
187,0.0311404000967741,0.00377264409326017,0.0233003925532103,-0.000166586687555537,0.010878786444664,0.000137121794978157
188,0.0277908761054277,-0.00146783946547657,0.0169213358312845,-0.000164136712555774,0.00893569830805063,-0.00781762506812811
189,0.0302172899246216,0.000205609772820026,0.017916327342391,-0.000163153323228471,0.0115579878911376,-0.00687578646466136
190,0.0313321053981781,0.000966114515904337,0.0182886514812708,-0.000162764074048027,0.0136762335896492,-0.00561911100521684
191,0.0276939515024424,-0.0040941764600575,0.0138700995594263,-0.000161789314006455,0.0129907922819257,-0.00956483464688063
192,0.0240991394966841,-0.00991787202656269,0.010382043197751,-0.000159378556418233,0.0125072877854109,-0.0142329605296254
193,0.0252816267311573,-0.010285560041666,0.0134146008640528,-0.000155467656441033,0.0152484243735671,-0.0143637843430042
194,0.0300137884914875,-0.00625656032934785,0.0207657665014267,-0.000150810650666244,0.0205113478004932,-0.0114696910604835
195,0.0351891852915287,-0.00174929678905755,0.028076721355319,-0.000146570702781901,0.0262719579041004,-0.00827001128345728
196,0.0407080836594105,0.00259517389349639,0.0353513807058334,-0.00014369205746334,0.0319221504032612,-0.00349219399504364
197,0.0466093979775906,0.00663942936807871,0.0432551540434361,-0.000142392600537278,0.0368022508919239,0.00287879561074078
198,0.049425657838583,0.00720591377466917,0.0477966144680977,-0.000142049699206837,0.0384389609098434,0.00613322667777538
199,0.0478172712028027,0.00409785052761436,0.0464196763932705,-0.000141539407195523,0.0359200499951839,0.00524668069556355
200,0.0431123673915863,-0.000249921926297247,0.0398762673139572,-0.000139844123623334,0.0300143156200647,0.00244391523301601
201,0.035854946821928,-0.0053663207218051,0.0292548332363367,-0.000136599861434661,0.0217434428632259,-0.00259006745181978
202,0.0287755243480206,-0.00940744578838348,0.0189849622547627,-0.000132288740132935,0.0143312513828278,-0.00789850298315287
203,0.0263000782579184,-0.00852705258876085,0.0155280223116279,-0.000127974737551995,0.011395376175642,-0.00818853173404932
204,0.0288667436689138,-0.00270249135792255,0.0200220141559839,-0.000124727666843683,0.0129629243165255,-0.00298718316480517
205,0.0308188609778881,0.00165141839534044,0.0253378506749868,-0.000123047342640348,0.0148015907034278,0.000708814710378647
206,0.0273904912173748,-0.000380951998522505,0.0249973889440298,-0.000122598168672994,0.013201579451561,-0.00191991392057389
207,0.0188177041709423,-0.00814989674836397,0.0183697808533907,-0.000122395184007473,0.00804228335618973,-0.0102724712342024
208,0.00980446860194206,-0.016483286395669,0.0101026697084308,-0.000121338358439971,0.00253768055699766,-0.0200309120118618
209,0.00650558806955814,-0.0188292972743511,0.00750613212585449,-0.000118805372039787,0.00109158433042467,-0.0245234556496143
210,0.00785462837666273,-0.0166527200490236,0.00999729707837105,-0.000114983013190795,0.00309945642948151,-0.0240986980497837
211,0.010001789778471,-0.0143888387829065,0.0130060212686658,-0.000110760767711326,0.00501637067645788,-0.0228025112301111
212,0.0127813490107656,-0.0125212837010622,0.0157751645892859,-0.000107247062260285,0.00647059176117182,-0.0221033822745085
213,0.0162851493805647,-0.0107036987319589,0.0182158946990967,-0.000105171304312535,0.00879661645740271,-0.0224978402256966
214,0.0206308644264936,-0.007568234577775,0.0210688579827547,-0.000104494538391009,0.012062655761838,-0.0216115526854992
215,0.024807371199131,-0.00353358243592083,0.0241263415664434,-0.000104436658148188,0.0148658007383347,-0.0187587253749371
216,0.0267426371574402,-0.0011325505329296,0.0256495662033558,-0.000103902100818232,0.0163934212177992,-0.0163802187889814
217,0.0252518188208342,-0.00157777359709144,0.0245265141129494,-0.000102071717265062,0.0166957043111324,-0.0157660506665707
218,0.0213077608495951,-0.00358513416722417,0.021606806665659,-9.88408210105263E-05,0.0166246723383665,-0.0162372253835201
219,0.0176916364580393,-0.00497651798650622,0.0190642718225718,-9.48691522353329E-05,0.0179503262042999,-0.016428055241704
220,0.014774632640183,-0.00651305681094527,0.0162919200956821,-9.12191389943473E-05,0.0205644331872463,-0.0170509219169617
221,0.0118423802778125,-0.00918285269290209,0.0126641988754272,-8.87810019776225E-05,0.0231940299272537,-0.0186022408306599
222,0.0109761813655496,-0.0101747838780284,0.0112606910988688,-8.77957718330435E-05,0.0259857624769211,-0.0186435896903276
223,0.0142146907746792,-0.00673082936555147,0.0143595347180963,-8.77319762366824E-05,0.0292387958616018,-0.0151310870423913
224,0.0197070017457008,-0.00101778877433389,0.019633375108242,-8.75789119163528E-05,0.0321161672472954,-0.00981872342526913
225,0.025079695507884,0.00378410378471017,0.0248578265309334,-8.63946552271955E-05,0.0348435826599598,-0.00432480918243527
226,0.030472032725811,0.007486408110708,0.0309469494968653,-8.38115665828809E-05,0.0389824062585831,0.00198572571389377
227,0.0334502756595612,0.00777696212753654,0.0351696237921715,-8.02279100753367E-05,0.0427420996129513,0.00543057033792138
228,0.0305508356541395,0.00165053177624941,0.0327017642557621,-7.65856893849559E-05,0.0429062098264694,0.0010316752595827
229,0.0250485632568598,-0.00683451443910599,0.0263592600822449,-7.38586386432871E-05,0.0411268956959248,-0.00755637185648084
230,0.0236103516072035,-0.00984728150069714,0.0238324515521526,-7.25286372471601E-05,0.0412018969655037,-0.0112842665985227
231,0.0273969285190105,-0.00550048751756549,0.0273160226643085,-7.23322882549837E-05,0.0436495393514633,-0.00717425998300314
232,0.031921848654747,0.000590661482419819,0.0322690308094025,-7.24107521818951E-05,0.0467149615287781,-0.000507808057591319
233,0.0335467904806137,0.00291576120071113,0.0349445231258869,-7.1777896664571E-05,0.0494353920221329,0.00354039086960256
234,0.0310473833233118,-0.000472690560854971,0.0347309038043022,-6.98514704708941E-05,0.0519196130335331,0.00309841777198017
235,0.0248197931796312,-0.00861183740198612,0.0322974547743797,-6.67610074742697E-05,0.0549019500613213,-0.00142085424158722
236,0.0188796818256378,-0.0160170756280422,0.0312306862324476,-6.32697556284256E-05,0.059814665466547,-0.0054857237264514
237,0.0172613635659218,-0.0175553429871798,0.0347421728074551,-6.03570297244005E-05,0.0666649416089058,-0.0048927036114037
238,0.0197426341474056,-0.0135909337550402,0.0416035614907742,-5.86896676395554E-05,0.0729415044188499,-0.000350239017279819
239,0.0231747347861528,-0.00819972343742847,0.0476825088262558,-5.82678076170851E-05,0.0757961422204971,0.0040776957757771
240,0.024706594645977,-0.00480529945343733,0.0497823916375637,-5.84331901336554E-05,0.0746050402522087,0.00531118316575885
241,0.0232439916580915,-0.00385978538542986,0.0474327392876148,-5.8230958529748E-05,0.0708397775888443,0.00347878271713853
242,0.0202557537704706,-0.00299293315038085,0.0430638752877712,-5.69260664633475E-05,0.067459762096405,0.00138741545379162
243,0.0200982093811035,0.00120947032701224,0.0422971062362194,-5.43949499842711E-05,0.0681574866175652,0.00451114540919662
244,0.0227675754576921,0.00606456073001027,0.0462449714541435,-5.1183673349442E-05,0.0721881464123726,0.0132916690781713
245,0.0242025554180145,0.00616564555093646,0.0510106682777405,-4.82058130728547E-05,0.0758066624403,0.0219894479960203
246,0.0244172886013985,0.00300845224410295,0.0556263066828251,-4.62470889033284E-05,0.078370064496994,0.0272890292108059
247,0.0243102572858334,0.000195802931557409,0.0595718063414097,-4.55454355687834E-05,0.0803302079439163,0.027843190357089
248,0.0227006375789642,-0.00188160501420498,0.0611745901405811,-4.5670891267946E-05,0.0814691707491875,0.0235487427562475
249,0.0193418636918068,-0.00396393053233624,0.060332290828228,-4.57656860817224E-05,0.0822834447026253,0.0170533023774624
250,0.0153491925448179,-0.0062597612850368,0.0580742508172989,-4.50105035270099E-05,0.0833146423101425,0.0113441655412316
251,0.0121626798063517,-0.00754566304385662,0.05622348934412,-4.30634572694544E-05,0.08427594602108,0.00862895231693983
252,0.0112837590277195,-0.00580244464799762,0.0570512712001801,-4.02364967158064E-05,0.0849727317690849,0.0101991826668382
253,0.0127268740907311,-0.00170248630456626,0.060693047940731,-3.7318401155062E-05,0.0857076123356819,0.0147079201415181
254,0.013458501547575,0.000687044288497418,0.0637784451246262,-3.51445451087784E-05,0.0856788083910942,0.0185319446027279
255,0.0130492513999343,0.00138492649421096,0.0658781379461288,-3.41481063514948E-05,0.0848216488957405,0.022188488394022
256,0.0128462165594101,0.00232966523617506,0.0678394436836243,-3.41337981808465E-05,0.0834434404969215,0.0269505344331265
257,0.0114009045064449,0.00194869854021817,0.0668015778064728,-3.43922038155142E-05,0.0800390914082527,0.0298998896032572
258,0.0114738214761019,0.00299520348198712,0.0658280923962593,-3.40880869771354E-05,0.0766100361943245,0.0331585630774498
259,0.0161032527685165,0.00826339051127434,0.0700050070881844,-3.27101624861825E-05,0.0770969688892365,0.0399105623364449
260,0.0205588284879923,0.0130765596404672,0.0752611085772514,-3.03400411212351E-05,0.0799333527684212,0.046240970492363
261,0.0208014138042927,0.0141184208914638,0.077183723449707,-2.75989732472226E-05,0.0819669738411903,0.049897812306881
262,0.0172908082604408,0.0119802923873067,0.076340027153492,-2.53060479735723E-05,0.083108052611351,0.0520793832838535
263,0.0104066813364625,0.00625210488215089,0.072621688246727,-2.40358785958961E-05,0.0833068266510963,0.0513601563870907
264,0.0045738504268229,0.00132360763382167,0.0696083605289459,-2.38145767070819E-05,0.0835469290614128,0.0507968030869961
265,0.00393001409247518,0.00178694899659604,0.0709487870335579,-2.41147954511689E-05,0.0848231762647629,0.0542968474328518
266,0.00542066758498549,0.00426691677421331,0.0732698068022728,-2.41475390794221E-05,0.0853945165872574,0.0580522194504738
267,0.00603362731635571,0.0063120424747467,0.0736026391386986,-2.3289325326914E-05,0.0839516967535019,0.0591847002506256
268,0.00502775935456157,0.00824519898742437,0.0710166469216347,-2.14133779081749E-05,0.0803467407822609,0.0575566478073597
269,0.00244959956035018,0.00936945434659719,0.0652975514531136,-1.89489637705265E-05,0.0754509270191193,0.0536764226853848
270,0.000388760468922555,0.00991004891693592,0.0591744296252728,-1.6641708498355E-05,0.0716669857501984,0.0510473847389221
271,0.00261964835226536,0.0130981504917145,0.0582241751253605,-1.51485819515074E-05,0.0720467269420624,0.0552554242312908
272,0.00634763250127435,0.0165748819708824,0.0610168613493443,-1.46874926940654E-05,0.074978344142437,0.0627330541610718
273,0.00443459907546639,0.0135637130588293,0.0603740699589252,-1.49283323480631E-05,0.0756498947739601,0.0637457892298698
274,-0.00149772327858955,0.00666727870702744,0.0575112253427505,-1.51795502461027E-05,0.0745088681578636,0.0593622736632824
275,-0.00547256041318178,0.00233741593547165,0.0573016814887524,-1.47649816426565E-05,0.0745913684368134,0.0557414628565311
276,-0.00510352198034525,0.00207252381369472,0.0607114508748055,-1.33855874082656E-05,0.0768878757953644,0.0545308999717236
277,-0.00232844729907811,0.0034117482136935,0.0655574798583984,-1.12725647340994E-05,0.0804786086082459,0.0539195016026497
278,0.00104797969106585,0.00548189412802458,0.0707511156797409,-9.0536623247317E-06,0.0845586657524109,0.0542438328266144
279,0.00515424925833941,0.00920681841671467,0.0769342333078384,-7.40963378120796E-06,0.0887132734060287,0.057679072022438
280,0.00883600488305092,0.0126742357388139,0.082855336368084,-6.70876261210651E-06,0.0924924314022064,0.0626176744699478
281,0.0126544758677483,0.0153219141066074,0.0891165360808373,-6.81561505189165E-06,0.0979414656758308,0.0674380660057068
282,0.018021285533905,0.0186884682625532,0.0974013581871986,-7.17312786946422E-06,0.106207482516766,0.0722316950559616
283,0.0229557119309902,0.0218136254698038,0.105257637798786,-7.10881977283861E-06,0.11406421661377,0.0761525109410286
284,0.0243229176849127,0.0220335815101862,0.108880467712879,-6.19684715275071E-06,0.118304207921028,0.0777180939912796
285,0.0201404914259911,0.017093600705266,0.10617895424366,-4.48095715910313E-06,0.118307337164879,0.0741923898458481
286,0.0101638920605183,0.00698080100119114,0.0965046733617783,-2.44172883867577E-06,0.114970862865448,0.0629908666014671
287,-0.00101164681836963,-0.00237154774367809,0.0847203806042671,-7.30692192973947E-07,0.111168257892132,0.0487334243953228
288,-0.00708847958594561,-0.00513012055307627,0.0786042660474777,1.81702915824644E-07,0.109598554670811,0.0400527454912663
289,-0.00762224663048983,-0.00369999650865793,0.0788941010832787,2.54122369369725E-07,0.109558440744877,0.0394226349890232
290,-0.00614281604066491,-0.00291632488369942,0.0809115692973137,-1.12241380634259E-07,0.109284251928329,0.043960127979517
291,-0.00456523010507226,-0.00384558597579598,0.0821449011564255,-2.97267177984395E-07,0.108787901699543,0.050359383225441
292,-0.00379820144735277,-0.0061642718501389,0.08189507573843,2.02008109795315E-07,0.107975050806999,0.0556585118174553
293,-0.00447553209960461,-0.00984160043299198,0.0800652280449867,1.50496146034129E-06,0.106326252222061,0.0574480183422565
294,-0.00364135182462633,-0.0117326257750392,0.0803029388189316,3.29169051838107E-06,0.105763517320156,0.0577776841819286
295,0.00168759375810623,-0.00869098398834467,0.0857668817043304,4.98340978083434E-06,0.10793898999691,0.0603643767535686
296,0.00799282174557447,-0.00421330658718944,0.0923017933964729,6.05743434789474E-06,0.110482595860958,0.0629388988018036
297,0.0113660618662834,-0.00191227195318788,0.0953911170363426,6.32541514278273E-06,0.111452996730804,0.0638416111469269
298,0.0125905834138393,-0.000639874837361276,0.09591044485569,6.02681984673836E-06,0.111698433756828,0.0666637942194939
299,0.0123460656031966,-6.76057743476122E-06,0.0946987643837929,5.69168196307146E-06,0.111531771719456,0.0714060962200165
300,0.0113040171563625,1.71799347299384E-05,0.0925513431429863,5.85104817218962E-06,0.111433111131191,0.0746046751737595
301,0.010296399705112,-0.000447487807832658,0.0908656418323517,6.75327919452684E-06,0.112262092530727,0.0734004005789757
302,0.00902140326797962,-0.00173963629640639,0.0900068655610085,8.23773643787717E-06,0.11400543153286,0.0673632025718689
303,0.00828561279922724,-0.00197725673206151,0.0906509384512901,9.82985056907637E-06,0.116262547671795,0.0607856065034866
304,0.00891769118607044,0.000507716264110059,0.0924838855862617,1.10017790575512E-05,0.117436051368713,0.0577097088098526
305,0.0107616884633899,0.00547391502186656,0.0945821851491928,1.14556005428312E-05,0.11607650667429,0.0589476078748703
306,0.0134476004168391,0.0112945530563593,0.0966961979866028,1.12771913336474E-05,0.113460458815098,0.0630056113004684
307,0.0165441650897264,0.0160777382552624,0.0988862961530685,1.08815547719132E-05,0.112420737743378,0.0674260929226875
308,0.0197979379445314,0.0197382494807243,0.101629734039307,1.07836312963627E-05,0.113681815564632,0.0713576152920723
309,0.0213810838758945,0.0208111740648746,0.102702580392361,1.13211099233013E-05,0.114228822290897,0.07279933989048
310,0.0204169824719429,0.0185083858668804,0.100101336836815,1.2478415555961E-05,0.112013123929501,0.0705754905939102
311,0.0189309623092413,0.0156106324866414,0.0962270274758339,1.39035018946743E-05,0.109125830233097,0.0673489347100258
312,0.0164309460669756,0.0120085887610912,0.0914696902036667,1.51038611875265E-05,0.10664751380682,0.0632139518857002
313,0.0125637166202068,0.00756733817979693,0.085706390440464,1.5712799722678E-05,0.104028306901455,0.0583205670118332
314,0.0108394660055637,0.00629896484315395,0.0828256979584694,1.5682098819525E-05,0.102462284266949,0.0569485537707806
315,0.0112957321107388,0.00832929834723473,0.083002045750618,1.52999928104691E-05,0.101874157786369,0.0592282190918922
316,0.0112699065357447,0.0106695760041475,0.083238959312439,1.50291753016063E-05,0.100644618272781,0.0618867129087448
317,0.0136817498132586,0.0156684331595898,0.0867009833455086,1.52557277033338E-05,0.100132621824741,0.0671337097883224
318,0.0208452995866537,0.0248125977814198,0.0955048501491547,1.6085192328319E-05,0.101780779659748,0.0762917026877403
319,0.0284481439739466,0.0333823785185814,0.103918135166168,1.72934214788256E-05,0.10327422618866,0.0843423753976822
320,0.0329246707260609,0.0380262471735477,0.107714682817459,1.84545242518652E-05,0.10225822776556,0.08800058811903
321,0.0346965007483959,0.0394400097429752,0.107776142656803,1.91731433005771E-05,0.0992168784141541,0.0882467925548553
322,0.0337302349507809,0.0377531163394451,0.104366116225719,1.92944771697512E-05,0.0951702743768692,0.0850119143724442
323,0.027784064412117,0.0308838691562414,0.0953420624136925,1.89806123671588E-05,0.0895318612456322,0.0756307542324066
324,0.0193078443408012,0.0219620540738106,0.0836687684059143,1.86159268196207E-05,0.0839825049042702,0.0634946972131729
325,0.0160412080585957,0.0194021873176098,0.0778077617287636,1.85964818228967E-05,0.0825697630643845,0.058331198990345
326,0.0180272236466408,0.0227425284683704,0.0780079588294029,1.91187500604428E-05,0.0840441435575485,0.0604122467339039
327,0.018269257619977,0.0240246839821339,0.0766719505190849,2.00803424377227E-05,0.0833836570382118,0.0615096874535084
328,0.0138075295835733,0.0195390656590462,0.0700946673750877,2.11426322493935E-05,0.078863188624382,0.0573161579668522
329,0.00601469492539763,0.010469582863152,0.0598790645599365,2.19175562961027E-05,0.0722130984067917,0.0483378581702709
330,-0.0019455763977021,0.00112294673454016,0.0500841960310936,2.21756654354976E-05,0.0659922733902931,0.0388432815670967
331,-0.00846945680677891,-0.00580703560262918,0.042208731174469,2.19639914575964E-05,0.0606136359274387,0.0322012044489384
332,-0.0144348684698343,-0.0116115966811776,0.0344348698854446,2.15734253288247E-05,0.0554102174937725,0.0273703951388597
333,-0.0170535128563643,-0.0141543513163924,0.0294627118855715,2.13771400012774E-05,0.0526717789471149,0.0262934733182192
334,-0.0123802907764912,-0.00919135939329863,0.0317738391458988,2.16297448787373E-05,0.0540288425981998,0.0333147421479225
335,-0.00315933092497289,0.000773725158069283,0.0388744957745075,2.23352108150721E-05,0.0567850805819035,0.0458504781126976
336,0.00453545339405537,0.00909207295626402,0.0447006709873676,2.32519487326499E-05,0.0582003854215145,0.0565300621092319
337,0.00767095293849707,0.0118710156530142,0.0458628535270691,2.40284334722674E-05,0.0579694248735905,0.0607286505401134
338,0.00770590221509337,0.0103472173213959,0.0437671579420567,2.43933900492266E-05,0.057373259216547,0.0597360283136368
339,0.00640984764322639,0.00696296198293567,0.0406443066895008,2.42977821471868E-05,0.0565257556736469,0.0562199167907238
340,0.00397877627983689,0.00250162137672305,0.0365877449512482,2.39344190049451E-05,0.0543130375444889,0.0507312342524529
341,0.00195262499619275,-0.001117282663472,0.0328067354857922,2.36283703998197E-05,0.0514595210552216,0.0451252013444901
342,0.000286414520815015,-0.00389883620664477,0.029172396287322,2.36603082157671E-05,0.0482597313821316,0.039674449712038
343,-0.00373162608593702,-0.00923121813684702,0.0230107344686985,2.41187335632276E-05,0.0435126237571239,0.0320286117494106
344,-0.00837759394198656,-0.0151553181931376,0.0168139077723026,2.48588148679119E-05,0.0388208664953709,0.0257101524621248
345,-0.00894986838102341,-0.0157901849597692,0.0160723496228457,2.55864852078957E-05,0.0369284115731716,0.0266275927424431
346,-0.00626049190759659,-0.0120945870876312,0.0191573314368725,2.60192628047662E-05,0.0366176515817642,0.032197006046772
347,-0.00357434037141502,-0.00836650282144547,0.0212346483021975,2.60359611274907E-05,0.035410612821579,0.0367405489087105
348,-0.00219005276449025,-0.00648083072155714,0.0204758327454329,2.57360552495811E-05,0.0325048714876175,0.0377914346754551
349,-0.00348882679827511,-0.00844433065503836,0.0160917174071074,2.53800135396887E-05,0.0277567263692617,0.0331488475203514
350,-0.00778508279472589,-0.0148649606853724,0.00876661669462919,2.52460195042659E-05,0.0218140557408333,0.0229021646082401
351,-0.0133440736681223,-0.0228429157286882,0.00103141693398356,2.5481844204478E-05,0.0155542772263289,0.0117391422390938
352,-0.0177043620496988,-0.0283355135470629,-0.00470361346378922,2.60306987911463E-05,0.00978521443903446,0.0051680700853467
353,-0.0196584053337574,-0.0300937257707119,-0.00795614533126354,2.6668019927456E-05,0.00514829531311989,0.00451222714036703
354,-0.020784879103303,-0.0309477839618921,-0.0106869069859385,2.71260905719828E-05,0.00100786634720862,0.00569873675704002
355,-0.0209604315459728,-0.0311808958649635,-0.0122586488723755,2.7237436370342E-05,-0.00220866501331329,0.00666793994605541
356,-0.0183793641626835,-0.0282078217715025,-0.00998919736593962,2.70203381660394E-05,-0.00317880907095969,0.00883220229297876
357,-0.0164818242192268,-0.0252403393387794,-0.00743368873372674,2.666297586984E-05,-0.00413045845925808,0.0090427128598094
358,-0.0182591062039137,-0.0254165660589933,-0.00820325035601854,2.64180671365466E-05,-0.00721572479233146,0.00556513154879212
359,-0.0203696247190237,-0.0254430752247572,-0.0090523399412632,2.64668578893179E-05,-0.0108922887593508,0.00346525851637125
360,-0.0227338224649429,-0.0261058956384659,-0.0105667896568775,2.68256371782627E-05,-0.0154273109510541,0.00233178748749197
361,-0.028231443837285,-0.0307695176452398,-0.0162474736571312,2.73428631771822E-05,-0.0222656391561031,-0.00192313804291189
362,-0.0358094982802868,-0.0378623083233833,-0.024416871368885,2.77852559520397E-05,-0.0302172545343637,-0.00828489940613508
363,-0.0436327308416367,-0.0453302003443241,-0.0324927158653736,2.79641681117937E-05,-0.0377685278654099,-0.0153096076101065
364,-0.0496607758104801,-0.051447369158268,-0.0386084094643593,2.78338357020402E-05,-0.0435855537652969,-0.0217097867280245
365,-0.0521799214184284,-0.0550430677831173,-0.0415766797959805,2.75105412583798E-05,-0.0466905981302261,-0.0260430742055178
366,-0.051552414894104,-0.0565932765603065,-0.0418707020580769,2.72053348453483E-05,-0.0476236641407013,-0.0281289760023355
367,-0.0475190430879593,-0.0555108115077019,-0.0391073785722256,2.71090975729749E-05,-0.0461534596979618,-0.0269439294934273
368,-0.0410740710794926,-0.0525576658546925,-0.0341807156801224,2.72924517048523E-05,-0.0422330908477306,-0.0236197784543037
369,-0.037126213312149,-0.0522189065814018,-0.03226163610816,2.76729588222224E-05,-0.0392604880034924,-0.0234700888395309
370,-0.0384700149297714,-0.0563576817512512,-0.0361781679093838,2.80643998848973E-05,-0.0397052355110645,-0.0286827608942986
371,-0.0438717268407345,-0.0630531013011932,-0.0440386272966862,2.82790333585581E-05,-0.0427968315780163,-0.0370202995836735
372,-0.0518433824181557,-0.0709896758198738,-0.0534985437989235,2.82267810689518E-05,-0.0475812442600727,-0.0464522019028664
373,-0.0600657053291798,-0.0782905444502831,-0.0616286918520927,2.79590440186439E-05,-0.0526157096028328,-0.0545385107398033
374,-0.0641111880540848,-0.080718956887722,-0.064036563038826,2.76361806754721E-05,-0.0547947324812412,-0.0570121183991432
375,-0.0616736300289631,-0.0764246508479118,-0.0591889023780823,2.74387512035901E-05,-0.0525530353188515,-0.0523206926882267
376,-0.0556629411876202,-0.0691313967108727,-0.0509828552603722,2.74716185231227E-05,-0.0481791086494923,-0.0443196073174477
377,-0.0501955896615982,-0.0628488212823868,-0.0440034456551075,2.77117615041789E-05,-0.0450163409113884,-0.0367548130452633
378,-0.0487188063561916,-0.0602912567555904,-0.041855551302433,2.80255717370892E-05,-0.0457741990685463,-0.0326738730072975
379,-0.0514678470790386,-0.0613900236785412,-0.0445044822990894,2.824371222232E-05,-0.0501630231738091,-0.0325950235128403
380,-0.053523488342762,-0.0609832294285297,-0.0462899245321751,2.8251708499738E-05,-0.0542999468743801,-0.0310492552816868
381,-0.053108487278223,-0.0575888156890869,-0.0452329441905022,2.80479362118058E-05,-0.0566819757223129,-0.0263648387044668
382,-0.0534395836293697,-0.0554758235812187,-0.0448867157101631,2.77397975878557E-05,-0.0589686557650566,-0.0230918638408184
383,-0.0546568632125854,-0.0551814138889313,-0.0454045869410038,2.74827361863572E-05,-0.0609119534492493,-0.0220010038465261
384,-0.054017573595047,-0.053258653730154,-0.0437634773552418,2.73965888482053E-05,-0.0612599737942219,-0.0198357310146093
385,-0.0511519536375999,-0.048763070255518,-0.0397755391895771,2.75042602879694E-05,-0.0608488693833351,-0.0149999903514981
386,-0.0485466048121452,-0.044528566300869,-0.0365683101117611,2.77239541901508E-05,-0.0612705014646053,-0.00967987813055515
387,-0.0482330173254013,-0.0434306524693966,-0.0367001891136169,2.79167161352234E-05,-0.0625595971941948,-0.00806969497352839
388,-0.0490696430206299,-0.0443902686238289,-0.0391718074679375,2.79618288914207E-05,-0.0633767694234848,-0.0110229877755046
389,-0.047575231641531,-0.0429581627249718,-0.0396864041686058,2.78192746918648E-05,-0.0624720193445683,-0.0137938847765327
390,-0.0442065633833408,-0.0395852774381638,-0.0374725870788097,2.75470501946984E-05,-0.0609394907951355,-0.0149621590971947
391,-0.0449330769479275,-0.0410680212080479,-0.0381673388183117,2.72663673968054E-05,-0.062272772192955,-0.020311189815402
392,-0.0526032485067844,-0.0495580025017262,-0.0452684797346592,2.70953805738827E-05,-0.0683445930480957,-0.0320752002298832
393,-0.0616460144519806,-0.05813068151474,-0.0539101473987103,2.70876316790236E-05,-0.0759238600730896,-0.043476540595293
394,-0.063267707824707,-0.058190394192934,-0.0548958964645863,2.72072029474657E-05,-0.078608363866806,-0.0454979278147221
395,-0.0572634935379028,-0.0505729280412197,-0.047249112278223,2.73517871391959E-05,-0.0751099959015846,-0.0384561382234097
396,-0.0514047034084797,-0.0433568805456162,-0.0388413667678833,2.74092981271679E-05,-0.0699484571814537,-0.0307140797376633
397,-0.0488582216203213,-0.0394243784248829,-0.0335465967655182,2.73167752311565E-05,-0.065497025847435,-0.0264638289809227
398,-0.046838067471981,-0.0359504148364067,-0.0295972060412169,2.70907530648401E-05,-0.0610160902142525,-0.02372488938272
399,-0.0435144416987896,-0.0314379222691059,-0.0261835344135761,2.68146868620534E-05,-0.0566170327365398,-0.0205512624233961
400,-0.0411996953189373,-0.0286493580788374,-0.0261596571654081,2.65922044491163E-05,-0.0546207912266254,-0.0192334949970245
401,-0.0424957163631916,-0.0303853470832109,-0.03189517557621,2.64923000941053E-05,-0.0565612129867077,-0.0221827272325754
402,-0.0455578826367855,-0.0340103469789028,-0.0402346067130566,2.65153921645833E-05,-0.0602669194340706,-0.0263861995190382
403,-0.0463989861309528,-0.034110851585865,-0.0449098497629166,2.65967719315086E-05,-0.0621925294399261,-0.0267760585993528
404,-0.0443148761987686,-0.0298835318535566,-0.0437364801764488,2.66436272795545E-05,-0.0618742406368256,-0.0231412872672081
405,-0.0428498461842537,-0.0263171270489693,-0.0412576943635941,2.65845974354306E-05,-0.0623143836855888,-0.0205369871109724
406,-0.0455260574817657,-0.0281676352024078,-0.0432235114276409,2.64054688159376E-05,-0.0659006759524345,-0.0240561813116074
407,-0.0504795797169209,-0.0338353998959064,-0.0486476868391037,2.61533550656168E-05,-0.0704087466001511,-0.0324511714279652
408,-0.0527541451156139,-0.038264948874712,-0.0514682754874229,2.5908981115208E-05,-0.071350984275341,-0.0395296886563301
409,-0.0519348569214344,-0.0407562255859375,-0.0502030849456787,2.57432602666086E-05,-0.068350151181221,-0.0432028211653233
410,-0.0484606549143791,-0.0402536429464817,-0.0457051135599613,2.56814564636443E-05,-0.0638376548886299,-0.0420178808271885
411,-0.0435141809284687,-0.0361221767961979,-0.0410725399851799,2.56929542956641E-05,-0.0621027611196041,-0.0361646376550198
412,-0.043169554322958,-0.034347802400589,-0.044895738363266,2.57103074545739E-05,-0.0683653876185417,-0.0339606218039989
413,-0.0475524514913559,-0.0364814698696136,-0.057023923844099,2.56659932347247E-05,-0.0801376923918724,-0.0382685028016567
414,-0.0504096522927284,-0.0381195098161697,-0.0673079639673233,2.55269096669508E-05,-0.0893202573060989,-0.0433864779770374
415,-0.0485226921737194,-0.0366437621414661,-0.0688049495220184,2.53091257036431E-05,-0.0910808965563774,-0.0447031781077385
416,-0.0414780601859093,-0.0303853042423725,-0.0603351406753063,2.50666234933306E-05,-0.0855559632182121,-0.0392152331769466
417,-0.0340411141514778,-0.0230816379189491,-0.0493421629071236,2.48615033342503E-05,-0.0787429437041283,-0.0305353105068207
418,-0.0320656597614288,-0.0203669704496861,-0.0456594675779343,2.47320367634529E-05,-0.0772679969668388,-0.0254229679703712
419,-0.0315090864896774,-0.0186527278274298,-0.0469426363706589,2.4674931410118E-05,-0.0790409296751022,-0.0212860535830259
420,-0.0272083524614573,-0.014495468698442,-0.0466229505836964,2.46498002525186E-05,-0.0786761045455933,-0.015412806533277
421,-0.0217411834746599,-0.0112472074106336,-0.0447315834462643,2.46020026679616E-05,-0.07604119181633,-0.0119833247736096
422,-0.0187058374285698,-0.0110211903229356,-0.0437861457467079,2.44910424953559E-05,-0.073746494948864,-0.0130624398589134
423,-0.0207736678421497,-0.015065886080265,-0.0479390136897564,2.43098420469323E-05,-0.0748469904065132,-0.0195757877081633
424,-0.0273986142128706,-0.022661991417408,-0.0581541582942009,2.40859426412499E-05,-0.0800799578428268,-0.030661191791296
425,-0.0322447828948498,-0.0277863275259733,-0.0670712739229202,2.38653774431441E-05,-0.0856240540742874,-0.0391339920461178
426,-0.0316687896847725,-0.0270866714417934,-0.0692522674798965,2.36885862250347E-05,-0.088394433259964,-0.0404220893979073
427,-0.0300732925534248,-0.0254135299474001,-0.0690644904971123,2.35709103435511E-05,-0.0897497609257698,-0.0397179201245308
428,-0.0303827095776796,-0.0258987545967102,-0.0703881233930588,2.34969284065301E-05,-0.0906932279467583,-0.041023962199688
429,-0.0297853816300631,-0.0254152733832598,-0.070598766207695,2.34303006436676E-05,-0.0899881795048714,-0.0413247868418694
430,-0.0276926998049021,-0.0234859809279442,-0.0685720965266228,2.3333048375207E-05,-0.0880809351801872,-0.0397941991686821
431,-0.0261377301067114,-0.0223762318491936,-0.0659607276320457,2.31841022468871E-05,-0.0859164595603943,-0.0385782942175865
432,-0.0262574348598719,-0.0230374336242676,-0.0644637197256088,2.29882134590298E-05,-0.083643913269043,-0.0390288904309273
433,-0.0280929990112782,-0.0254516713321209,-0.0654264241456985,2.27717664529337E-05,-0.082102082669735,-0.0416723936796188
434,-0.03121742233634,-0.0292930267751217,-0.0691567584872246,2.25685907935258E-05,-0.0823376998305321,-0.0464094802737236
435,-0.0351534225046635,-0.0339017882943153,-0.0747736543416977,2.24033719860017E-05,-0.084469735622406,-0.0524962022900581
436,-0.0381653420627117,-0.0370694324374199,-0.0794455632567406,2.22806884266902E-05,-0.0869719982147217,-0.0573522076010704
437,-0.0385023504495621,-0.0372684001922607,-0.0805768519639969,2.21843183680903E-05,-0.0883300751447678,-0.0588883496820927
438,-0.0359224528074265,-0.0350727997720242,-0.077717624604702,2.2086278477218E-05,-0.0881747230887413,-0.0571525394916534
439,-0.031111778691411,-0.0313293151557446,-0.0716143921017647,2.19606299651787E-05,-0.0863821730017662,-0.0527246929705143
440,-0.0246745012700558,-0.02607168443501,-0.0633460208773613,2.17953420360573E-05,-0.0830636769533157,-0.0458446778357029
441,-0.0185115039348602,-0.0200890935957432,-0.0558750033378601,2.15970048884628E-05,-0.079883448779583,-0.0383985303342342
442,-0.0169415827840567,-0.016875147819519,-0.0543236769735813,2.13867733691586E-05,-0.0796989649534225,-0.0353568568825722
443,-0.0211075320839882,-0.018329931423068,-0.0593711100518703,2.11899841815466E-05,-0.0828913599252701,-0.0381507053971291
444,-0.0256780479103327,-0.0205177273601294,-0.06449805945158,2.10244525078451E-05,-0.0860289707779884,-0.0401413664221764
445,-0.0270827021449804,-0.0205123443156481,-0.0655580163002014,2.08926885534311E-05,-0.0860980749130249,-0.0370043776929379
446,-0.027452738955617,-0.0202248152345419,-0.0648699700832367,2.07812936423579E-05,-0.0836052596569061,-0.0322654545307159
447,-0.0290163364261389,-0.0213676560670137,-0.0654149129986763,2.06674903893145E-05,-0.081124484539032,-0.0300676301121712
448,-0.0319560617208481,-0.0240664705634117,-0.0680330023169518,2.05297128559323E-05,-0.0802520364522934,-0.0317744910717011
449,-0.0330319367349148,-0.0253773462027311,-0.0693166851997375,2.03574818442576E-05,-0.0794439315795898,-0.0336433686316013
450,-0.0282881688326597,-0.0211655050516129,-0.0647124797105789,2.01561942958506E-05,-0.0767691284418106,-0.029621409252286
451,-0.0196107067167759,-0.0129850991070271,-0.0555954538285732,1.99446621991228E-05,-0.0734839588403702,-0.0207224003970623
452,-0.0122745772823691,-0.00651010684669018,-0.0472281388938427,1.97464833036065E-05,-0.0715761333703995,-0.0140416575595737
453,-0.00861528515815735,-0.00430768029764295,-0.0423177368938923,1.95790289581055E-05,-0.0708846673369408,-0.0132682407274842
454,-0.00830149836838245,-0.00556765170767903,-0.0409787036478519,1.94450985873118E-05,-0.0706746727228165,-0.0166035015136003
455,-0.00960596557706594,-0.00802642293274403,-0.0418603867292404,1.9331235307618E-05,-0.0702212825417519,-0.0202263649553061
456,-0.00946529302746058,-0.00815842673182487,-0.0418495237827301,1.9213746782043E-05,-0.0686617866158485,-0.0204664710909128
457,-0.00713076908141375,-0.00536686228588223,-0.0400275439023972,1.90698974620318E-05,-0.066764771938324,-0.0174179766327143
458,-0.0036054439842701,-0.00137437821831554,-0.0372488684952259,1.8889097191277E-05,-0.0650266855955124,-0.0132919382303953
459,0.000298968690913171,0.00293729803524911,-0.0337016806006432,1.86786164704245E-05,-0.0625515133142471,-0.00911122560501099
460,0.00349881825968623,0.0066877887584269,-0.0299693886190653,1.84607033588691E-05,-0.0590399913489819,-0.00553677417337894
461,0.00456413300707936,0.00825024116784334,-0.0281449388712645,1.82620751729701E-05,-0.0557467564940453,-0.00412814924493432
462,0.00202371645718813,0.00594067620113492,-0.0309300217777491,1.81006616912782E-05,-0.0548438280820847,-0.00714880460873246
463,-0.00138359889388084,0.00221732351928949,-0.0355255343019962,1.79761445906479E-05,-0.0555557459592819,-0.011995755136013
464,-0.0021505611948669,0.000193616870092228,-0.0374240912497044,1.78693480847869E-05,-0.0556457079946995,-0.0142409559339285
465,-0.000129746797028929,0.000441280251834542,-0.036104753613472,1.77512538357405E-05,-0.0543246679008007,-0.0129127809777856
466,0.00544372014701366,0.0049558118917048,-0.0307913459837437,1.75975346792256E-05,-0.0507417470216751,-0.00694010406732559
467,0.0133617948740721,0.0128270015120506,-0.0228334795683622,1.74013293872122E-05,-0.0459463596343994,0.0016553676687181
468,0.018631387501955,0.0182071290910244,-0.0174692012369633,1.71775591297774E-05,-0.0433435328304768,0.00641309842467308
469,0.0183043200522661,0.0172063633799553,-0.0175782293081284,1.6956071704044E-05,-0.0448773354291916,0.00383176933974028
470,0.0153675265610218,0.0122346002608538,-0.0203581117093563,1.67666785273468E-05,-0.04781274497509,-0.00285332067869604
471,0.0141859790310264,0.00803632102906704,-0.0218798276036978,1.66235549841076E-05,-0.0481716170907021,-0.00834391824901104
472,0.0151492981240153,0.00604074448347092,-0.0216235145926476,1.65172077686293E-05,-0.0465595237910748,-0.0110787618905306
473,0.0159168113023043,0.00437584752216935,-0.0218391325324774,1.64185894391267E-05,-0.045901320874691,-0.0135071380063891
474,0.0147086689248681,0.00162904756143689,-0.0245940070599318,1.62936976266792E-05,-0.0471181757748127,-0.0175629463046789
475,0.0130646638572216,2.40275403484702E-05,-0.0280934851616621,1.61213774845237E-05,-0.0486863851547241,-0.0204697605222464
476,0.0149972327053547,0.00339425657875836,-0.027291115373373,1.59049741341732E-05,-0.0481482483446598,-0.0171248912811279
477,0.0201342198997736,0.0099287461489439,-0.021820118650794,1.56714049808215E-05,-0.0453929752111435,-0.00895824562758207
478,0.0231716632843018,0.0130030047148466,-0.0174615792930126,1.54576464410638E-05,-0.0427474342286587,-0.00398685364052653
479,0.022759398445487,0.0115828942507505,-0.0163957234472036,1.52914271893678E-05,-0.0412004962563515,-0.00462640589103103
480,0.0218852702528238,0.00989429652690887,-0.0159923136234283,1.5176188753685E-05,-0.0401013642549515,-0.00648031290620565
481,0.0210834518074989,0.00879785232245922,-0.0163050908595324,1.50885416587698E-05,-0.0396710708737373,-0.00796828325837851
482,0.018626170232892,0.00620328495278955,-0.0193852726370096,1.49899797179387E-05,-0.0410163402557373,-0.0110649764537811
483,0.0147564243525267,0.00208735233172774,-0.0243567209690809,1.48470098793041E-05,-0.0438610278069973,-0.0160594526678324
484,0.0115008559077978,-0.00180910679046065,-0.0286812372505665,1.46491947816685E-05,-0.0463657416403294,-0.0214866865426302
485,0.00961093418300152,-0.00436190236359835,-0.0312188249081373,1.4415338227991E-05,-0.0475736483931541,-0.0260685160756111
486,0.00771803734824061,-0.00600981153547764,-0.0327095277607441,1.41841774166096E-05,-0.0485211685299873,-0.0296359844505787
487,0.00490239588543773,-0.00718889059498906,-0.0340084657073021,1.39941366796847E-05,-0.0503618605434895,-0.0325843766331673
488,0.00283996667712927,-0.00582502176985145,-0.0338987186551094,1.38627592605189E-05,-0.052912313491106,-0.0329714044928551
489,0.0052364207804203,0.0018163142958656,-0.0286022871732712,1.37768383865478E-05,-0.0540438406169415,-0.0263682082295418
490,0.0117065450176597,0.0136557584628463,-0.0184909887611866,1.36988401209237E-05,-0.0525111481547356,-0.0146674932911992
491,0.0164596121758223,0.0222180802375078,-0.0103128449991345,1.35865293486859E-05,-0.0507230311632156,-0.00610706442967057
492,0.016498913988471,0.0246014501899481,-0.00813077017664909,1.34155434352579E-05,-0.0509008802473545,-0.00398030085489154
493,0.014040601439774,0.0233850441873074,-0.0100215915590525,1.31928245536983E-05,-0.0520566590130329,-0.00536362500861287
494,0.0128032676875591,0.0223061572760344,-0.0117339473217726,1.29534882944427E-05,-0.0520128011703491,-0.00565304886549711
495,0.0130351930856705,0.0214306134730577,-0.0124081866815686,1.27424809761578E-05,-0.0509744994342327,-0.00463220942765474
496,0.0131549565121531,0.0190671645104885,-0.0133720384910703,1.25906117318664E-05,-0.0499795451760292,-0.00504778744652867
497,0.0143125774338841,0.0172654408961535,-0.0135262673720717,1.24977696032147E-05,-0.0483432374894619,-0.00569950416684151
498,0.0160405468195677,0.0166366621851921,-0.0139389578253031,1.24324969874579E-05,-0.0465189069509506,-0.00605848431587219
499,0.0160453543066978,0.014912380836904,-0.0173595137894154,1.23484269352048E-05,-0.0454865097999573,-0.00790401734411716
500,0.0152037302032113,0.0128559162840247,-0.0217560492455959,1.22089977594442E-05,-0.0443259738385677,-0.00985983852297068
501,0.014040170237422,0.0112815098837018,-0.0247705802321434,1.20072645586333E-05,-0.0432333797216415,-0.0115029783919454
502,0.0115930708125234,0.00922302063554525,-0.0267286505550146,1.17700392365805E-05,-0.043496523052454,-0.0145323285833001
503,0.00871382188051939,0.00735649606212974,-0.0273215416818857,1.15439115688787E-05,-0.0443387478590012,-0.0178526807576418
504,0.00764607219025493,0.00776652060449123,-0.0254001580178738,1.13704363684519E-05,-0.0436822287738323,-0.0184884034097195
505,0.00993151869624853,0.011306419968605,-0.020547516644001,1.12637198981247E-05,-0.0409488677978516,-0.015280113555491
506,0.0134952664375305,0.0154363112524152,-0.0154145229607821,1.12025245471159E-05,-0.0380731262266636,-0.0108909523114562
507,0.0150897828862071,0.0176094211637974,-0.0129794953390956,1.11413255581283E-05,-0.0368916541337967,-0.00808886159211397
508,0.0128514133393765,0.0162230301648378,-0.0147978756576777,1.10345699795289E-05,-0.0377690382301807,-0.00916877668350935
509,0.0080956257879734,0.0122255822643638,-0.019796047359705,1.08611993709928E-05,-0.0393755584955215,-0.0136173348873854
510,0.00521674007177353,0.0101203108206391,-0.0235395114868879,1.06362194856047E-05,-0.03921252861619,-0.0163825694471598
511,0.00585386622697115,0.0113367643207312,-0.0237409695982933,1.04029422800522E-05,-0.0362330339848995,-0.0155262630432844
512,0.00770676182582974,0.0131187280640006,-0.0225672163069248,1.02099093055585E-05,-0.0322307832539082,-0.0139268096536398
513,0.00802358146756887,0.0127274906262755,-0.0234059132635593,1.00848055808456E-05,-0.0298843029886484,-0.0148882549256086
514,0.00796591397374868,0.0118703199550509,-0.0251409616321325,1.00194047263358E-05,-0.0288875363767147,-0.0167900715023279
515,0.0101726986467838,0.0136801227927208,-0.0245842207223177,9.97375082079088E-06,-0.0278802383691072,-0.0156070655211806
516,0.0149820456281304,0.0184941347688437,-0.0212364681065083,9.89747331914259E-06,-0.0267063546925783,-0.0103630786761642
517,0.0217141974717379,0.0256190747022629,-0.0159328039735556,9.75684270088095E-06,-0.0253776144236326,-0.00239386921748519
518,0.0275971461087465,0.0318311154842377,-0.0115069905295968,9.55303585215006E-06,-0.0248892903327942,0.00381605117581785
519,0.0304080117493868,0.0343336164951324,-0.00972425658255816,9.32168677536538E-06,-0.025604335591197,0.00506789330393076
520,0.0309511572122574,0.0344455279409885,-0.00941178388893604,9.11387451196788E-06,-0.0264901407063007,0.00338034867309034
521,0.0298219248652458,0.0336714200675488,-0.0105526447296143,8.96869278221857E-06,-0.0274264626204968,0.00104272889439017
522,0.0284567419439554,0.033680971711874,-0.0124120032414794,8.89215516508557E-06,-0.0283875204622746,0.000305585708701983
523,0.02906583994627,0.0356412008404732,-0.0130015276372433,8.85383542481577E-06,-0.0288283117115498,0.00249086879193783
524,0.0298434011638165,0.0361340492963791,-0.0141165992245078,8.80313200468663E-06,-0.0296566858887672,0.00367474346421659
525,0.0291137620806694,0.0337905585765839,-0.0166671350598335,8.69645100465277E-06,-0.0312062259763479,0.00226282188668847
526,0.0279162954539061,0.0313466191291809,-0.01845408603549,8.52070388646098E-06,-0.032101035118103,0.00087641563732177
527,0.0261055622249842,0.0287582967430353,-0.0199497099965811,8.30042699817568E-06,-0.0319062620401382,-0.000947623979300261
528,0.0253171175718308,0.0266656931489706,-0.0207845699042082,8.08464756119065E-06,-0.0300841741263866,-0.00235472642816603
529,0.0274000447243452,0.0270283706486225,-0.0192165225744247,7.92053288023453E-06,-0.0260297246277332,-0.00108837871812284
530,0.0319297388195992,0.0305865537375212,-0.0147845586761832,7.82799725129735E-06,-0.0204086061567068,0.00329094869084656
531,0.0387227460741997,0.0377762019634247,-0.00711456872522831,7.78895719122374E-06,-0.014491518959403,0.0110670169815421
532,0.0443156845867634,0.04446866735816,-4.09424183089868E-06,7.75703756517032E-06,-0.0108536751940846,0.0183744505047798
533,0.0445682220160961,0.0454724617302418,0.0018550573149696,7.68253448768519E-06,-0.0106313806027174,0.0200858991593122
534,0.042211476713419,0.0433219149708748,0.00121814699377865,7.53916583562386E-06,-0.010934597812593,0.0182429831475019
535,0.0407111756503582,0.0418385863304138,0.00166660803370178,7.3382188929827E-06,-0.00972762890160084,0.0161832980811596
536,0.0387945584952831,0.0396031364798546,0.00125207589007914,7.12245810063905E-06,-0.00826523266732693,0.0128463953733444
537,0.0384471975266933,0.0391935855150223,0.00152788183186203,6.94308073434513E-06,-0.00629169307649136,0.0118027376011014
538,0.0428975969552994,0.0451047532260418,0.00667491788044572,6.8321560320328E-06,-0.00283826398663223,0.0176326967775822
539,0.0485308133065701,0.0532371513545513,0.0140068661421537,6.78539208820439E-06,0.000468204001663253,0.0256566125899553
540,0.0510948784649372,0.0579144917428494,0.0188982281833887,6.76450736136758E-06,0.00289829657413065,0.0305449292063713
541,0.0514432601630688,0.0598307773470879,0.02128841355443,6.71789985062787E-06,0.00534092495217919,0.0335760861635208
542,0.0513813570141792,0.0611497759819031,0.0225283093750477,6.60844352751155E-06,0.00732943369075656,0.0364509858191013
543,0.0484651774168015,0.0586062557995319,0.0196829698979855,6.43343446427025E-06,0.00633693300187588,0.0347245410084724
544,0.0423351116478443,0.0513475872576237,0.0124846640974283,6.22595189270214E-06,0.0024853590875864,0.0269435308873653
545,0.0405648685991764,0.048741415143013,0.010382579639554,6.03695298195817E-06,0.00097055546939373,0.023132273927331
546,0.0453528650105,0.0542214922606945,0.0169983766973019,5.90779973208555E-06,0.00344190420582891,0.0277704261243343
547,0.0482803098857403,0.0579940304160118,0.0228050407022238,5.84804092795821E-06,0.00551005359739065,0.0314371287822723
548,0.0452344678342342,0.0547980479896069,0.0216975938528776,5.83039263801766E-06,0.00568685447797179,0.0286888685077429
549,0.040701612830162,0.0493174754083157,0.0175210703164339,5.80556388740661E-06,0.00739374058321118,0.023859441280365
550,0.0366455391049385,0.043673787266016,0.0130486795678735,5.72886438021669E-06,0.0115819619968534,0.0184833873063326
551,0.0309691391885281,0.0357415862381458,0.00675078760832548,5.58422379981494E-06,0.0143383285030723,0.0102028558030725
552,0.0265608225017786,0.0288825277239084,0.00154664856381714,5.39270013177884E-06,0.0140592940151691,0.00293519231490791
553,0.0284919608384371,0.0290380753576756,0.00297887343913317,5.20097182743484E-06,0.013644658960402,0.00313165038824081
554,0.0341990143060684,0.0339284501969814,0.0086256442591548,5.05610159962089E-06,0.0140295242890716,0.00829908344894648
555,0.0377379767596722,0.0372744463384151,0.0121285365894437,4.98022382089403E-06,0.0138403968885541,0.0115044973790646
556,0.0369044505059719,0.0364092662930489,0.0110850883647799,4.95878157380503E-06,0.0125427404418588,0.00933854281902313
557,0.0331841334700584,0.0323009453713894,0.00712671549990773,4.94856840305147E-06,0.0102865500375628,0.00288082892075181
558,0.0320872366428375,0.0302666872739792,0.0062757027335465,4.9011318878911E-06,0.00924461707472801,-0.000583253451623023
559,0.0369836837053299,0.0340142883360386,0.0122217582538724,4.78885976917809E-06,0.0111045083031058,0.00461411569267511
560,0.0440192967653275,0.040294673293829,0.0205669347196817,4.61968647869071E-06,0.0136401830241084,0.0147158289328218
561,0.0490950271487236,0.0457755886018276,0.0270027499645948,4.43259204985225E-06,0.0151571910828352,0.0240646973252296
562,0.0503870844841003,0.0492721572518349,0.0303692650049925,4.27643135481048E-06,0.015500795096159,0.0292208399623632
563,0.04550801217556,0.0475742444396019,0.0276695005595684,4.18360150433728E-06,0.0129077285528183,0.0260235704481602
564,0.034463707357645,0.038454357534647,0.0175486207008362,4.15274689657963E-06,0.00686370301991701,0.0131815066561103
565,0.0233707670122385,0.0274321958422661,0.00649548461660743,4.14974238083232E-06,0.00100676144938916,-0.0018301623640582
566,0.0191565044224262,0.0231021195650101,0.00285046803764999,4.12628378398949E-06,-0.000792783626820892,-0.00895444490015507
567,0.0190674364566803,0.0235636420547962,0.0040176659822464,4.04596039516036E-06,-0.000499662477523088,-0.0098750377073884
568,0.0161675922572613,0.0210765991359949,0.00195724423974752,3.90372269976069E-06,-0.00209994846954942,-0.0129197845235467
569,0.0131462290883064,0.0182228162884712,-0.000931345333810896,3.72833596884448E-06,-0.00380106619559228,-0.0155393416061997
570,0.0171754099428654,0.0230507999658585,0.00322181638330221,3.56663304046378E-06,-0.00185335543937981,-0.00915606413036585
571,0.025197034701705,0.0322743579745293,0.011439117603004,3.4581948966661E-06,0.00158951210323721,0.00262994272634387
572,0.0280229784548283,0.0358475632965565,0.0135911209508777,3.41414738613821E-06,0.00132674421183765,0.00855682604014874
573,0.0248827561736107,0.0334408544003963,0.00868647824972868,3.41144141202676E-06,-0.00311779696494341,0.00763112492859364
574,0.0202896781265736,0.0306953117251396,0.00252303178422153,3.40554925060133E-06,-0.0087783532217145,0.00565470475703478
575,0.0149793177843094,0.0283539537340403,-0.00324169592931867,3.35458571498748E-06,-0.0140570718795061,0.00327996071428061
576,0.00909619964659214,0.0258504953235388,-0.00815882626920938,3.24177790389513E-06,-0.0179269313812256,0.000207511795451865
577,0.00585347833111882,0.0261890664696693,-0.00876175239682198,3.08422636408068E-06,-0.0189205780625343,0.00104455486871302
578,0.00652979547157884,0.0298576578497887,-0.0045962193980813,2.92338108920376E-06,-0.0171193387359381,0.00774199981242418
579,0.00628703320398927,0.0303198043256998,-0.00229386589489877,2.80253107121098E-06,-0.0154387131333351,0.0130990082398057
580,0.00191742670722306,0.0239115003496408,-0.00606996472924948,2.74353828899621E-06,-0.0160349886864424,0.0112767089158297
581,-0.00220988877117634,0.0161927938461304,-0.0108736520633101,2.73532168648671E-06,-0.0170883666723967,0.00663739768788219
582,-0.00226416904479265,0.0126220257952809,-0.0116533795371652,2.74015883405809E-06,-0.0168926510959864,0.00495290663093328
583,5.23375747434329E-05,0.0126678589731455,-0.00937697477638721,2.71422595687909E-06,-0.0163683015853167,0.00628227926790714
584,0.00264226598665118,0.0145730739459395,-0.00577086489647627,2.63119136434398E-06,-0.0163855440914631,0.00925367139279842
585,0.00530376052483916,0.0180772189050913,-0.000933525909204036,2.49615322900354E-06,-0.0167933143675327,0.0135401180014014
586,0.00619561364874244,0.020862028002739,0.00271923327818513,2.3425413928635E-06,-0.0180597398430109,0.0159601159393787
587,0.00339891598559916,0.0200688075274229,0.00172015582211316,2.21384493670485E-06,-0.0207663010805845,0.0134286088868976
588,-0.00089090398978442,0.0173661671578884,-0.00272470852360129,2.14014880839386E-06,-0.0238950997591019,0.00907183066010475
589,-0.00432822573930025,0.0148736778646708,-0.00751181738451123,2.12214604289329E-06,-0.0267367530614138,0.00624465849250555
590,-0.00695073930546641,0.0119004417210817,-0.0113944942131639,2.13111820812628E-06,-0.0290887635201216,0.00388809316791594
591,-0.0089998934417963,0.00802025943994522,-0.0139386923983693,2.1247042241157E-06,-0.0302422754466534,0.000546357361599803
592,-0.0100590251386166,0.00474577583372593,-0.0144004486501217,2.06979757422232E-06,-0.0297461561858654,-0.00259564910084009
593,-0.00815226417034864,0.00512852659448981,-0.0108391977846622,1.96019095710653E-06,-0.0265986863523722,-0.00178842898458242
594,-0.00332064088433981,0.00922549329698086,-0.00415717158466578,1.81956158940011E-06,-0.0211276561021805,0.00342507474124432
595,0.00114309834316373,0.0132373375818133,0.0013610030291602,1.68838118952408E-06,-0.0158994719386101,0.00836169719696045
596,0.00339944264851511,0.0143974348902702,0.00352169433608651,1.60198339926865E-06,-0.0123847685754299,0.009590077213943
597,0.00413509737700224,0.0132265081629157,0.00308747333474457,1.57167596626095E-06,-0.0102884527295828,0.00817512162029743
598,0.00470019597560167,0.0123102990910411,0.00169188447762281,1.57899455643928E-06,-0.00914562027901411,0.00702260201796889
599,0.00711312424391508,0.0146392583847046,0.00197370699606836,1.58600676058995E-06,-0.00801840238273144,0.00885586440563202
600,0.0112190563231707,0.0195681564509869,0.00408506114035845,1.55591953898693E-06,-0.00663698464632034,0.0129443509504199
601,0.0125189851969481,0.0217404011636972,0.00336780096404254,1.47279115481069E-06,-0.00689393375068903,0.013762328773737
602,0.00814779568463564,0.0180787853896618,-0.00279414094984531,1.34978495225369E-06,-0.00987518206238747,0.00811296328902245
603,0.000366035208571702,0.0110951429232955,-0.0113348383456469,1.22169592486898E-06,-0.013883750885725,-0.000729002058506012
604,-0.00614117970690131,0.00624056532979012,-0.0168592650443316,1.12598240775696E-06,-0.0163679234683514,-0.00597869278863072
605,-0.00802231207489967,0.00721972389146686,-0.0162179283797741,1.08264316622808E-06,-0.0160256624221802,-0.00346642639487982
606,-0.00609021261334419,0.0118170250207186,-0.0114382617175579,1.08374911178544E-06,-0.0136160291731358,0.00401737447828054
607,-0.0042008263990283,0.0142921144142747,-0.00779737485572696,1.09810491721873E-06,-0.011242444626987,0.0098586268723011
608,-0.00474338047206402,0.0124261286109686,-0.00791764911264181,1.08831477518834E-06,-0.00964630674570799,0.0110467514023185
609,-0.00722431857138872,0.00859904661774635,-0.0108676953241229,1.03091633718577E-06,-0.00816084910184145,0.00957612413913012
610,-0.00885637104511261,0.00637623341754079,-0.0137424245476723,9.28738700167742E-07,-0.00586874270811677,0.0089016854763031
611,-0.00701258191838861,0.0072815022431314,-0.01343790628016,8.08978313671105E-07,-0.00218265247531235,0.0106128910556436
612,-0.00229146028868854,0.00984425656497478,-0.0101752523332834,7.08243419467181E-07,0.00206291466020048,0.0132548902183771
613,0.0041862609796226,0.0137058962136507,-0.00500958412885666,6.52788060051535E-07,0.0065211527980864,0.0164785925298929
614,0.0106440931558609,0.0180708784610033,0.000297524209599942,6.44607951016951E-07,0.0104986224323511,0.0200002621859312
615,0.0140170464292169,0.0196251086890697,0.00246985582634807,6.60757223158726E-07,0.0120278634130955,0.0211215186864138
616,0.0147589165717363,0.0185621771961451,0.00221925997175276,6.66041330532607E-07,0.0116646308451891,0.0201907157897949
617,0.014934710226953,0.017269553616643,0.00196804548613727,6.32066019079502E-07,0.0110429767519236,0.0196774564683437
618,0.0150332041084766,0.0162098538130522,0.00195533270016313,5.52330732261908E-07,0.0103818904608488,0.0201338604092598
619,0.0173273179680109,0.0176482833921909,0.00452365912497044,4.45342635657653E-07,0.0114000225439668,0.0234752409160137
620,0.0237053893506527,0.0236885491758585,0.0122634703293443,3.4428231288075E-07,0.0159807130694389,0.0311526376754045
621,0.0293095950037241,0.0286585427820683,0.0204216130077839,2.78984458645937E-07,0.0212829746305943,0.036976907402277
622,0.0266892034560442,0.024005314335227,0.0206559095531702,2.600170603273E-07,0.0220809504389763,0.0325396507978439
623,0.0166233610361815,0.0115275699645281,0.0129799144342542,2.73352611657174E-07,0.0177896302193403,0.0204275734722614
624,0.00720559386536479,0.00171994150150567,0.00533929606899619,2.88302999251755E-07,0.0120881935581565,0.0115407379344106
625,0.00170574698131531,-0.00172469753306359,0.000617166282609105,2.74237095254648E-07,0.00625173561275005,0.00894457660615444
626,-0.00195145641919225,-0.00269546406343579,-0.00383718172088265,2.16973219835381E-07,0.000108446431113407,0.00801051966845989
627,-0.00255329255014658,-0.00116010126657784,-0.00646602408960462,1.26072919215403E-07,-0.00386611954309046,0.00904960092157125
628,0.000554758938960731,0.00337561592459679,-0.00578367291018367,2.92930781853329E-08,-0.00439582532271743,0.0134649910032749
629,0.00444896798580885,0.00788762513548136,-0.00403454154729843,-4.26018509358528E-08,-0.0031052294652909,0.0186826027929783
630,0.00781062198802829,0.0112546915188432,-0.00187763618305326,-7.23604003383116E-08,-0.00156777491793036,0.0231130998581648
631,0.0104405991733074,0.0135002918541431,7.5587238825392E-05,-6.52284128932479E-08,-0.00104135600849986,0.0257580801844597
632,0.0126433623954654,0.0149492714554071,0.00129890022799373,-4.57267113063153E-08,-0.00179754104465246,0.0263897273689508
633,0.0146815469488502,0.0158205237239599,0.00255782622843981,-4.41742535883805E-08,-0.00290037784725428,0.0256281420588493
634,0.014579507522285,0.0140116820111871,0.0024496226105839,-8.03627173695531E-08,-0.00424567144364119,0.0218698419630528
635,0.0115390913560987,0.00917660538107157,-0.000278494466328993,-1.53173886019431E-07,-0.00636253505945206,0.0148614719510078
636,0.00765070831403136,0.00431158393621445,-0.00419276207685471,-2.41582711169031E-07,-0.00887946877628565,0.00798408780246973
637,0.00384178198873997,0.00063943030545488,-0.00821015611290932,-3.16290254431806E-07,-0.0108646396547556,0.00331576424650848
638,-0.000567050476092845,-0.00283367210067809,-0.0121739748865366,-3.55556181830252E-07,-0.0117214042693377,0.000269728974672034
639,-0.00520778121426702,-0.00621489062905312,-0.0153652299195528,-3.56677901436342E-07,-0.0114097381010652,-0.00187651766464114
640,-0.00754930870607495,-0.00733422394841909,-0.0154362330213189,-3.37060896526964E-07,-0.00917681399732828,-0.00201823934912682
641,-0.00525574758648872,-0.00397701933979988,-0.0104352692142129,-3.24514928706776E-07,-0.0042214123532176,0.00157494284212589
642,-0.00136281352024525,0.000567110953852534,-0.00424708146601915,-3.4218112432427E-07,0.00104642636142671,0.00599184725433588
643,0.000130359767354093,0.00199877028353512,-0.00153459387365729,-3.96260418256134E-07,0.00400960771366954,0.00791488215327263
644,-0.000586456444580108,0.000657115888316184,-0.00190330727491528,-4.73048743288018E-07,0.00477650063112378,0.0081560043618083
645,-0.00298266857862473,-0.0026911124587059,-0.00448847468942404,-5.46674016277393E-07,0.00388413830660284,0.00613425625488162
646,-0.00586272962391377,-0.00673697283491492,-0.00799618754535913,-5.9317710565665E-07,0.00239634118042886,0.00153025949839503
647,-0.0083416448906064,-0.0101266903802752,-0.0111988065764308,-6.03277044319839E-07,0.000464710465166718,-0.00410941708832979
648,-0.0127181028947234,-0.0146829104050994,-0.0160172302275896,-5.87023237130779E-07,-0.00311281043104827,-0.0116676827892661
649,-0.0176630560308695,-0.0187913440167904,-0.0204782541841269,-5.68019629554328E-07,-0.00596038904041052,-0.0187010653316975
650,-0.0175583269447088,-0.0166848003864288,-0.0184674728661776,-5.7052892543652E-07,-0.00426112674176693,-0.0186307188123465
651,-0.0108429724350572,-0.00720414333045483,-0.00936230085790157,-6.06502624123095E-07,0.00173126545269042,-0.0104628456756473
652,-0.00128372607287019,0.00507709244266152,0.00176568853203207,-6.69468079195212E-07,0.00891799759119749,0.000636991986539215
653,0.00597819639369845,0.0145443612709641,0.00968590378761292,-7.38390951937618E-07,0.0143220406025648,0.00882665999233723
654,0.00891861785203218,0.0196518320590258,0.0131901698186994,-7.89230512054928E-07,0.0168932490050793,0.0122891953215003
655,0.00750125292688608,0.0204221289604902,0.0124616548418999,-8.0784485589902E-07,0.0163557603955269,0.0112514039501548
656,0.00370335392653942,0.018014770001173,0.00910483207553625,-7.97322456946858E-07,0.0139392847195268,0.00786628853529692
657,0.00267296191304922,0.0177419744431973,0.00853173807263374,-7.759490472381E-07,0.0130416927859187,0.00812517199665308
658,0.0036516897380352,0.01913121342659,0.00985526293516159,-7.67106200783019E-07,0.0131813986226916,0.0108980936929584
659,-0.000341262930305675,0.0138432700186968,0.00500685768201947,-7.86679379416455E-07,0.0102885207161307,0.0066752266138792
660,-0.00881127174943686,0.00150487280916423,-0.00562457647174597,-8.34756463063968E-07,0.0050484798848629,-0.00519446237012744
661,-0.0144660929217935,-0.00897759012877941,-0.0138166584074497,-8.95949256118911E-07,0.00150384067092091,-0.0153896575793624
662,-0.0156904067844152,-0.0144312893971801,-0.0177667513489723,-9.47967180309206E-07,-0.00016775906260591,-0.0200010985136032
663,-0.0141719179227948,-0.0164840146899223,-0.0190134551376104,-9.7367342277721E-07,-0.000822195201180875,-0.0199455842375755
664,-0.00914418138563633,-0.0140506066381931,-0.0157692059874535,-9.70106839304208E-07,0.00124068895820528,-0.0145132541656494
665,-0.00230899732559919,-0.00788681022822857,-0.00946547463536263,-9.49726711496623E-07,0.00605814391747117,-0.00594457145780325
666,0.00305557530373335,-0.000606868707109243,-0.00424805423244834,-9.33401793190569E-07,0.0115261441096663,0.00235255993902683
667,0.00649468414485455,0.00574047118425369,-0.00129892549011856,-9.39082326567586E-07,0.0159608740359545,0.0101525401696563
668,0.0109043410047889,0.0112811466678977,0.00237956852652133,-9.7230372375634E-07,0.0192737486213446,0.0198950134217739
669,0.0181795097887516,0.0177276749163866,0.00893604196608067,-1.02354226783064E-06,0.0216927025467157,0.0323535799980164
670,0.0237298682332039,0.0215192437171936,0.0134304855018854,-1.07366622614791E-06,0.0216685272753239,0.0407183244824409
671,0.0236141216009855,0.0193787608295679,0.0118607804179192,-1.1043736094507E-06,0.019325353205204,0.0392777547240257
672,0.0210117604583502,0.0155474571511149,0.00760685186833143,-1.10792768737156E-06,0.017421655356884,0.0317872613668442
673,0.0194186940789223,0.013788259588182,0.00396313890814781,-1.0910159744526E-06,0.016841659322381,0.0232625398784876
674,0.0174243506044149,0.0119346203282475,-0.000519904308021069,-1.07082462363906E-06,0.0154258189722896,0.0135414125397801
675,0.0128118265420198,0.00714890984818339,-0.00756345456466079,-1.06561776647141E-06,0.0116456355899572,0.00144683802500367
676,0.00818201061338186,0.0018715359037742,-0.0136021701619029,-1.08498454665096E-06,0.00828500930219889,-0.00913145206868649
677,0.00717341573908925,-0.000338330632075667,-0.0147969424724579,-1.12495979465166E-06,0.00904442649334669,-0.0141432657837868
678,0.00819488987326622,-0.00143472198396921,-0.014122593216598,-1.17049194159335E-06,0.0124377608299255,-0.0167190283536911
679,0.00809360109269619,-0.00458324886858463,-0.0157512687146664,-1.20375034384779E-06,0.0142796197906137,-0.0211666747927666
680,0.00747447460889816,-0.00810999237000942,-0.0180485490709543,-1.21369430416962E-06,0.0137680377811193,-0.0251026246696711
681,0.00942262727767229,-0.00805217865854502,-0.0165188889950514,-1.20177116968989E-06,0.0134875774383545,-0.0226224791258574
682,0.0140963261947036,-0.00494246603921056,-0.0116476714611053,-1.18081391065061E-06,0.01461445633322,-0.0141552817076445
683,0.0183339882642031,-0.0027983752079308,-0.00773193081840873,-1.16790749871143E-06,0.0155537640675902,-0.00637062406167388
684,0.0204865597188473,-0.00266586942598224,-0.00612459052354097,-1.17518595743604E-06,0.0155951706692576,-0.00342059670947492
685,0.0209280699491501,-0.00300141936168075,-0.00582996476441622,-1.20351558052789E-06,0.0158163793385029,-0.00490890117362142
686,0.0207921881228685,-0.00249988120049238,-0.00550767779350281,-1.24234782106214E-06,0.0168903358280659,-0.00796280987560749
687,0.0210088454186916,-0.00115475535858423,-0.00453988276422024,-1.27564931062807E-06,0.018815241754055,-0.0104978857561946
688,0.0224506314843893,0.00128451688215137,-0.00243162573315203,-1.29058275888383E-06,0.0220399796962738,-0.0105895502492785
689,0.0258433390408754,0.00602850643917918,0.00144185463432223,-1.28424505874136E-06,0.0261389594525099,-0.00530074676498771
690,0.0294206943362951,0.0112322466447949,0.0050510335713625,-1.26493057450716E-06,0.0290853250771761,0.00380776729434729
691,0.0312321987003088,0.013956606388092,0.00648916838690639,-1.24740540741186E-06,0.029978446662426,0.0120975961908698
692,0.0314695984125137,0.014286863617599,0.00661876145750284,-1.24487701214093E-06,0.0297461729496717,0.0169360768049955
693,0.0306566450744867,0.0136008877307177,0.00668450212106109,-1.26202530736919E-06,0.029557641595602,0.0175844673067331
694,0.0291839931160212,0.0130252474918962,0.0073073236271739,-1.29276804727851E-06,0.0300038438290358,0.0148416124284267
695,0.0291226413100958,0.0146460570394993,0.0101341297850013,-1.32381069306575E-06,0.0317871198058128,0.0121591435745358
696,0.0310202725231647,0.0184131283313036,0.0148953199386597,-1.34192225687002E-06,0.0342137515544891,0.0116948084905744
697,0.032497301697731,0.0217731352895498,0.0188907515257597,-1.34096057990973E-06,0.0349552296102047,0.0125815263018012
698,0.0322943218052387,0.0236872173845768,0.0212483797222376,-1.32492175453081E-06,0.0331939347088337,0.0140309492126107
699,0.0284280758351088,0.0216106306761503,0.0196157693862915,-1.30551438815019E-06,0.0286164954304695,0.0121280876919627
700,0.018814492970705,0.0125967562198639,0.0107693085446954,-1.29571401430439E-06,0.0206949859857559,0.00224341172724962
701,0.00695263082161546,0.000140296906465665,-0.00188458792399615,-1.30284263377689E-06,0.0113642169162631,-0.0118224797770381
702,-0.000529236742295325,-0.00835197325795889,-0.0106996884569526,-1.32486275106203E-06,0.00466021243482828,-0.0210360065102577
703,-0.00129183405078948,-0.0101200668141246,-0.0127961104735732,-1.35175253035413E-06,0.00321737001650035,-0.0221820678561926
704,0.00361974281258881,-0.00594053138047457,-0.00903529860079288,-1.37107303999073E-06,0.00685704173520207,-0.0163100026547909
705,0.0108366552740335,0.00118087837472558,-0.00232340884394944,-1.37464064664528E-06,0.0122272251173854,-0.00676891766488552
706,0.0153544116765261,0.00576297659426928,0.00207770522683859,-1.36273069983872E-06,0.0151292886584997,-0.000128270243294537
707,0.016009759157896,0.00615274906158447,0.00203341036103666,-1.34366121073981E-06,0.0145140094682574,0.00136910635046661
708,0.0145440520718694,0.00415823422372341,-0.00100675015710294,-1.32912816752651E-06,0.0120888948440552,1.94755614302267E-07
709,0.0122351283207536,0.00153932441025972,-0.00481770327314734,-1.32790319185006E-06,0.00997172761708498,-0.00289040640927851
710,0.0101642496883869,0.000133893350721337,-0.00728550693020225,-1.34128754325502E-06,0.00888511724770069,-0.00629306863993406
711,0.0092128524556756,0.000543754606042057,-0.00778686441481113,-1.36267419748037E-06,0.00855394639074802,-0.00874506309628487
712,0.0095496503636241,0.00200967723503709,-0.00679590785875916,-1.38131144922227E-06,0.00971652287989855,-0.00928211212158203
713,0.0119035774841905,0.00546152051538229,-0.00353420758619905,-1.38813300054608E-06,0.013495814986527,-0.00647992547601461
714,0.01600481569767,0.0108621576800942,0.00161070947069675,-1.38049881570623E-06,0.0180217120796442,-0.00120130833238363
715,0.0188009552657604,0.0141080180183053,0.00521609652787447,-1.3633725757245E-06,0.0201622378081083,0.00151466217357665
716,0.0197406560182571,0.0144209414720535,0.00688875000923872,-1.34643687488278E-06,0.0204570628702641,0.000449860992375761
717,0.0214722733944654,0.0157910957932472,0.00935651641339064,-1.33881337660569E-06,0.020832035690546,-0.000101791374618188
718,0.023665577173233,0.0186621751636267,0.0118369897827506,-1.34426534259546E-06,0.020981565117836,0.00113242911174893
719,0.0226201191544533,0.0188313256949186,0.010355968028307,-1.35940183554339E-06,0.0191617645323277,0.000448645063443109
720,0.0184120740741491,0.0157658308744431,0.00516413059085608,-1.37572646963235E-06,0.0153754455968738,-0.00259505468420684
721,0.0152696715667844,0.0134578235447407,0.000873326498549432,-1.38430823426461E-06,0.0115459505468607,-0.00379382027313113
722,0.015839783474803,0.0142904995009303,0.000841900648083538,-1.38051279918727E-06,0.0091885132715106,-0.000773966719862074
723,0.0207826867699623,0.0188124980777502,0.00636517349630594,-1.36629125790932E-06,0.00958439521491528,0.00622314121574163
724,0.0280210506170988,0.0248024631291628,0.0148257445544004,-1.34890967729007E-06,0.0125302160158753,0.0137550765648484
725,0.0343532636761665,0.0287525411695242,0.0217007882893085,-1.33692242343386E-06,0.016370015218854,0.0177288576960564
726,0.0371771939098835,0.0286113396286964,0.0237720981240273,-1.33561741222366E-06,0.0190635789185762,0.0163156259804964
727,0.0342854484915733,0.0234842672944069,0.0192680824548006,-1.34435663312615E-06,0.0186813157051802,0.00930709391832352
728,0.0269542839378119,0.0152296125888824,0.0104518262669444,-1.35714083171479E-06,0.015781581401825,-0.000114846014184877
729,0.0191213674843311,0.0073399287648499,0.00173015485052019,-1.36597702748986E-06,0.0124999573454261,-0.00762303546071053
730,0.013687445782125,0.00229898700490594,-0.00440683541819453,-1.36516337079229E-06,0.0100242383778095,-0.0109802503138781
731,0.0125471176579595,0.00217745988629758,-0.00576679594814777,-1.35420032165712E-06,0.00969880912452936,-0.00857533141970634
732,0.0160902850329876,0.00733864447101951,-0.00161047035362571,-1.33784874378762E-06,0.0120872035622597,-0.00102284492459148
733,0.0221065543591976,0.0149501217529178,0.00512864906340837,-1.32341870084929E-06,0.01514857634902,0.00784337613731623
734,0.0281137973070145,0.021710067987442,0.0119987903162837,-1.31682827486657E-06,0.0177875738590956,0.0145553108304739
735,0.0317465290427208,0.0249445158988237,0.0169378854334354,-1.31955482629564E-06,0.0201784074306488,0.0167037602514029
736,0.0302050821483135,0.0226742532104254,0.0161560755223036,-1.32804439090251E-06,0.0205624345690012,0.0128357373178005
737,0.0235387664288282,0.0158533807843924,0.00894550047814846,-1.33578703298554E-06,0.0176489483565092,0.00432043056935072
738,0.0160949416458607,0.00884366594254971,0.000412577646784484,-1.33685648506798E-06,0.0134502490982413,-0.00398995308205485
739,0.0119170118123293,0.00491668470203877,-0.00400020135566592,-1.3289916296344E-06,0.0107801128178835,-0.00773464469239116
740,0.0109918648377061,0.00325382058508694,-0.00394539255648851,-1.31462593344622E-06,0.0100940046831965,-0.00725526828318834
741,0.0131762800738215,0.00417501199990511,-0.000229880679398775,-1.29941224713548E-06,0.0116128390654922,-0.00289264065213501
742,0.0188712477684021,0.00930371042340994,0.00711866375058889,-1.28912631680578E-06,0.0158914122730494,0.00613794755190611
743,0.0234577488154173,0.0139075182378292,0.0125386407598853,-1.28664362364361E-06,0.0196608230471611,0.0140718966722488
744,0.0228217393159866,0.0125918788835406,0.0108586614951491,-1.29056797959493E-06,0.0196723155677319,0.0147336749359965
745,0.0178088452666998,0.00552471680566669,0.00339989387430251,-1.29615477817424E-06,0.0165422838181257,0.00833496451377869
746,0.0103516913950443,-0.00466765044257045,-0.00685315765440464,-1.2979403436475E-06,0.0116819394752383,-0.00204742792993784
747,0.00474637001752853,-0.0121714724227786,-0.0146904634311795,-1.29262616610504E-06,0.0077282334677875,-0.0100969392806292
748,0.003767647780478,-0.0133336111903191,-0.0161073040217161,-1.28069791571761E-06,0.00688740750774741,-0.0117287943139672
749,0.00538793671876192,-0.0104971444234252,-0.0128074372187257,-1.26599672967131E-06,0.00847094506025314,-0.00902529992163181
750,0.0069709368981421,-0.00707087572664022,-0.00884050223976374,-1.25356245916919E-06,0.0104449642822146,-0.00583875412121415
751,0.00890395510941744,-0.0028912746347487,-0.00477410852909088,-1.24695816339226E-06,0.0120773836970329,-0.00229575904086232
752,0.0114132054150105,0.00194053386803716,6.23426312813535E-05,-1.24649181998393E-06,0.0131906168535352,0.00219230935908854
753,0.0109487287700176,0.00246383901685476,0.00206971634179354,-1.24921859878668E-06,0.012045182287693,0.00316469930112362
754,0.00832050014287233,-0.00112084683496505,0.0011858333600685,-1.25063058931119E-06,0.00936526339501143,0.000914943229872733
755,0.0081999097019434,-0.00264531373977661,0.00168859306722879,-1.24707150916947E-06,0.00776355247944593,0.00145313714165241
756,0.0103397397324443,-0.000492957537062466,0.00383891141973436,-1.23758741210622E-06,0.00728872790932655,0.00537159200757742
757,0.0125819751992822,0.00339663494378328,0.00670763803645968,-1.22428207305347E-06,0.00836638920009136,0.00956111866980791
758,0.0135776698589325,0.00645781448110938,0.00979905482381582,-1.21107257200492E-06,0.0120546724647284,0.0113817639648914
759,0.0126870507374406,0.00725472858175635,0.0117045659571886,-1.20157551464217E-06,0.0172149538993835,0.0101419826969504
760,0.0105150025337934,0.00637624552473426,0.011598358862102,-1.19726075809012E-06,0.0216568931937218,0.00684313382953405
761,0.00856067705899477,0.00542044313624501,0.0102863684296608,-1.19681226351531E-06,0.0240501072257757,0.00295384554192424
762,0.00979259237647057,0.00767734088003635,0.0114150708541274,-1.19695755529392E-06,0.0254801716655493,0.00239484524354339
763,0.0125619871541858,0.0117942616343498,0.0146461753174663,-1.19425612865598E-06,0.0261432733386755,0.00547989830374718
764,0.0119420364499092,0.0131617542356253,0.0153182344511151,-1.1868731917275E-06,0.024452218785882,0.00926229823380709
765,0.00697997305542231,0.0108635015785694,0.0111794900149107,-1.17542879252142E-06,0.0201452486217022,0.0123118981719017
766,0.00111199438106269,0.0076602497138083,0.00446530990302563,-1.16254227577883E-06,0.0150318238884211,0.013653876259923
767,-0.00262770894914865,0.00628406461328268,-0.00138542265631258,-1.1513825484144E-06,0.0105965500697494,0.0122817354276776
768,-0.00455392012372613,0.00682698609307408,-0.00591536844149232,-1.14402303097449E-06,0.00640993984416127,0.00806809309870005
769,-0.00289097218774259,0.0115095879882574,-0.00646395701915026,-1.14045474219893E-06,0.00363468704745173,0.00624600937590003
770,0.00348204025067389,0.0207496602088213,-0.00114672794006765,-1.13871556095546E-06,0.00353476707823575,0.00990015268325806
771,0.0125673953443766,0.0310636777430773,0.00766236148774624,-1.13600299300742E-06,0.00569094764068723,0.0160801205784082
772,0.0214058272540569,0.0394127406179905,0.0164527669548988,-1.13014209546236E-06,0.00873336847871542,0.0213757362216711
773,0.0256289076060057,0.042331900447607,0.0206614434719086,-1.12064412860491E-06,0.00991889834403992,0.0220187176018953
774,0.0227954797446728,0.0379488877952099,0.0178004819899797,-1.10884877813078E-06,0.00726652750745416,0.0162179097533226
775,0.0142643405124545,0.0281829331070185,0.0094909630715847,-1.09713835172442E-06,0.00121810974087566,0.00605798466131091
776,0.00401511043310165,0.0170006919652224,-0.00034872061223723,-1.0876808573812E-06,-0.0060458779335022,-0.00472563784569502
777,-0.00379994953982532,0.00770995439961553,-0.00805147271603346,-1.08136259768798E-06,-0.0120946690440178,-0.0130973560735583
778,-0.00803095102310181,0.0015144661301747,-0.0124626392498612,-1.07743085209222E-06,-0.0157004315406084,-0.0179522950202227
779,-0.0106346299871802,-0.00287167658098042,-0.0154908839613199,-1.07397397641762E-06,-0.0180428624153137,-0.0209248382598162
780,-0.0141803780570626,-0.00835635233670473,-0.0201361831277609,-1.06894344753528E-06,-0.0212078131735325,-0.0254446286708117
781,-0.0197665486484766,-0.016220236197114,-0.0272119250148535,-1.0611738616717E-06,-0.0253556426614523,-0.0327799841761589
782,-0.0238566156476736,-0.0220278967171907,-0.0319259278476238,-1.05089839053107E-06,-0.0278104338794947,-0.0375611335039139
783,-0.0221148207783699,-0.0209271125495434,-0.0291640553623438,-1.03954471342149E-06,-0.0263836421072483,-0.0343290604650974
784,-0.0168359614908695,-0.0157598834484816,-0.0218147747218609,-1.02896115095064E-06,-0.0230321064591408,-0.0265516191720963
785,-0.0121969738975167,-0.0112976292148232,-0.0155554311349988,-1.02049193628773E-06,-0.0205030627548695,-0.0200177598744631
786,-0.0093471547588706,-0.00867309141904116,-0.0125443413853645,-1.01435932720051E-06,-0.0193280279636383,-0.0168030839413404
787,-0.00838021375238895,-0.00775195751339197,-0.0125725511461496,-1.0096293863171E-06,-0.0192195679992437,-0.0169325731694698
788,-0.00842168834060431,-0.00731995236128569,-0.013544132001698,-1.00473346265062E-06,-0.0190574787557125,-0.0185411833226681
789,-0.00909769255667925,-0.00688270991668105,-0.0143484901636839,-9.982596793634E-07,-0.0179419498890638,-0.0208952352404594
790,-0.0109729301184416,-0.00761317135766149,-0.0159733816981316,-9.89617205959803E-07,-0.0165743697434664,-0.0245061181485653
791,-0.0124360686168075,-0.00841886457055807,-0.0174718033522367,-9.79270225798246E-07,-0.0153521811589599,-0.026715399697423
792,-0.0119579611346126,-0.00774200726300478,-0.0173563584685326,-9.68459630712459E-07,-0.0137126641348004,-0.0255503598600626
793,-0.0111531037837267,-0.00710053974762559,-0.016669562086463,-9.58576492848806E-07,-0.0116057880222797,-0.0235934443771839
794,-0.0102663291618228,-0.00640393421053886,-0.0154109466820955,-9.50500975704927E-07,-0.00875668134540319,-0.02168308198452
795,-0.00709720095619559,-0.00324934185482562,-0.0118390833958983,-9.44213411457895E-07,-0.00439166417345405,-0.017858138307929
796,-0.000867143447976559,0.00290741585195065,-0.00554660800844431,-9.38844380016235E-07,0.00136305019259453,-0.0120204901322722
797,0.00572654185816646,0.00913140084594488,0.000777553126681596,-9.33115700263443E-07,0.00669419672340155,-0.00747612165287137
798,0.00784633867442608,0.0100291362032294,0.00225323042832315,-9.25953315800143E-07,0.00896328594535589,-0.00909973867237568
799,0.00599230779334903,0.00604179641231894,-0.000330666138324887,-9.16983935894677E-07,0.00889644119888544,-0.014830032363534
800,0.00424380414187908,0.00209846976213157,-0.00243613985367119,-9.06691923319158E-07,0.00875024124979973,-0.0186487752944231
801,0.00289246113970876,-0.000827364798169583,-0.00390560133382678,-8.96174981335207E-07,0.00803000945597887,-0.0197683367878199
802,0.00073747435817495,-0.00367273623123765,-0.00612438796088099,-8.86619432094449E-07,0.00599787151440978,-0.0199281983077526
803,-0.00310281221754849,-0.00742462836205959,-0.0102250110358,-8.7874099108376E-07,0.00226289290003479,-0.0215212572365999
804,-0.00812007021158934,-0.0116832060739398,-0.0159050691872835,-8.72449618327664E-07,-0.00319472677074373,-0.0252869669348001
805,-0.011261934414506,-0.013644146732986,-0.0193495731800795,-8.66893742568209E-07,-0.00775669049471617,-0.0282604955136776
806,-0.011364015750587,-0.0127849262207747,-0.0186572559177876,-8.60865156937507E-07,-0.00877364538609982,-0.0290245208889246
807,-0.00904279947280884,-0.009838598780334,-0.0146688660606742,-8.53376263876271E-07,-0.00624254951253533,-0.027659647166729
808,-0.00421898625791073,-0.00427099084481597,-0.00779618043452501,-8.44140117806091E-07,-0.0014626745833084,-0.0234622787684202
809,0.000578160164877772,0.00159830925986171,-0.00101438234560192,-8.33721060189418E-07,0.00268983189016581,-0.0179731268435717
810,0.00245527271181345,0.00500748585909605,0.0025775081012398,-8.23275684069813E-07,0.00379094574600458,-0.0127889513969421
811,0.000553051009774208,0.00495924521237612,0.0023425652179867,-8.13998155990703E-07,0.00198537902906537,-0.00944401975721121
812,-0.00399219524115324,0.00215177051723003,-0.000352554547134787,-8.06532000297011E-07,-0.000810406636446714,-0.00879178382456303
813,-0.00663656042888761,0.00135851302184165,-0.00127230165526271,-8.00636826170376E-07,-0.00182291306555271,-0.00676207197830081
814,-0.00509339896962047,0.00514960940927267,0.00131008587777615,-7.95284165633348E-07,-0.000544176436960697,-0.00109002343378961
815,-0.0038472656160593,0.00851847790181637,0.00251835631206632,-7.89151442859293E-07,-0.000233592043514363,0.00243305787444115
816,-0.00690055079758167,0.00681068375706673,-0.00173124892171472,-7.81280334649637E-07,-0.00369942863471806,-0.00139954988844693
817,-0.0130607094615698,0.00104182353243232,-0.00966641958802938,-7.71574264035735E-07,-0.0105402059853077,-0.0109956571832299
818,-0.0218028705567122,-0.00789530295878649,-0.0202159862965345,-7.60875650485104E-07,-0.0201150085777044,-0.0244640037417412
819,-0.0337732248008251,-0.0200807191431522,-0.0340445563197136,-7.50566528040508E-07,-0.0320900455117226,-0.0410482585430145
820,-0.0453521832823753,-0.0317701287567616,-0.0469783060252666,-7.41877840937377E-07,-0.043353259563446,-0.0560893304646015
821,-0.0523212477564812,-0.0391909219324589,-0.0538447648286819,-7.35251205696841E-07,-0.0503237843513489,-0.0654895231127739
822,-0.0557773113250732,-0.0438289903104305,-0.0559674613177776,-7.30085560007865E-07,-0.0533645041286945,-0.0712234899401665
823,-0.0586467981338501,-0.0485549494624138,-0.0575114265084267,-7.25015297575737E-07,-0.0548642314970493,-0.0762082487344742
824,-0.060741949826479,-0.0524823293089867,-0.0589859709143639,-7.18595742910111E-07,-0.0555198192596436,-0.0795123800635338
825,-0.0600678436458111,-0.0523123890161514,-0.0577065199613571,-7.10053484453965E-07,-0.0545389801263809,-0.0783789530396461
826,-0.0578992888331413,-0.0489547103643417,-0.0542253591120243,-6.99712188634294E-07,-0.0530196763575077,-0.0736476927995682
827,-0.056889146566391,-0.046376034617424,-0.0516101568937302,-6.88857198838377E-07,-0.0523298159241676,-0.0689404010772705
828,-0.0582074709236622,-0.0471851527690887,-0.0517187677323818,-6.79090874200483E-07,-0.0519839823246002,-0.0680282115936279
829,-0.0619876496493816,-0.0516556352376938,-0.0550797134637833,-6.71500174576067E-07,-0.0517855659127235,-0.0728934779763222
830,-0.0657072737812996,-0.0563083440065384,-0.0591559559106827,-6.66070036459132E-07,-0.0512232817709446,-0.0802990421652794
831,-0.0670545101165771,-0.0579953789710999,-0.0611960738897324,-6.61660692458099E-07,-0.0499848909676075,-0.0860335156321526
832,-0.0676549673080444,-0.0578784234821796,-0.0624792464077473,-6.56578890811943E-07,-0.0498093515634537,-0.0899531170725822
833,-0.0686793178319931,-0.0569829270243645,-0.0640827789902687,-6.49459195756208E-07,-0.0518383719027042,-0.0919909849762917
834,-0.0677618533372879,-0.0538869202136993,-0.0638576522469521,-6.39995846540842E-07,-0.0545420087873936,-0.0895926803350449
835,-0.0656871348619461,-0.0509270988404751,-0.0629017651081085,-6.2913215970184E-07,-0.0577786192297935,-0.0842905715107918
836,-0.0672401413321495,-0.0534770712256432,-0.0659498572349548,-6.1859117295171E-07,-0.0640426799654961,-0.0824164748191834
837,-0.0726237148046494,-0.0606887675821781,-0.0732610151171684,-6.09979224464041E-07,-0.0727884024381638,-0.0855371430516243
838,-0.0767241045832634,-0.0659560933709145,-0.0800320133566856,-6.03929379394685E-07,-0.0801111683249474,-0.0886478871107101
839,-0.0768169388175011,-0.0665049999952316,-0.0833436399698257,-5.99742918439006E-07,-0.0842987447977066,-0.0890267938375473
840,-0.0730163678526878,-0.063481293618679,-0.0825956463813782,-5.95732728925213E-07,-0.0854033827781677,-0.0869806259870529
841,-0.0683575049042702,-0.0605566315352917,-0.0808442831039429,-5.90102331443632E-07,-0.0855336859822273,-0.085494726896286
842,-0.0675219371914864,-0.0618867017328739,-0.0835513398051262,-5.81902042995353E-07,-0.0882323086261749,-0.0884538292884827
843,-0.0691142082214355,-0.065004400908947,-0.0891697630286217,-5.71552959627297E-07,-0.0927312895655632,-0.0929251909255981
844,-0.0699514299631119,-0.0664712637662888,-0.0937040597200394,-5.60648345526715E-07,-0.0966413393616676,-0.095352329313755
845,-0.0688288360834122,-0.0650863349437714,-0.0956575348973274,-5.51124287540006E-07,-0.0987461879849434,-0.094850018620491
846,-0.0656973272562027,-0.0605878606438637,-0.094810277223587,-5.44231113508431E-07,-0.0988702476024628,-0.0917738899588585
847,-0.0651560127735138,-0.0585523508489132,-0.0963479653000832,-5.39853431291704E-07,-0.100337490439415,-0.0929254963994026
848,-0.0697574019432068,-0.0631487667560577,-0.104369282722473,-5.36549634944095E-07,-0.105283923447132,-0.103128485381603
849,-0.0737876445055008,-0.0688058733940125,-0.113345794379711,-5.32302635747328E-07,-0.11009569466114,-0.115864112973213
850,-0.0713917389512062,-0.0684432238340378,-0.11586856096983,-5.2559124696927E-07,-0.110859848558903,-0.122442707419395
851,-0.0631878897547722,-0.0615146793425083,-0.110986024141312,-5.16212367074331E-07,-0.107968702912331,-0.121513597667217
852,-0.0538191273808479,-0.0527084991335869,-0.103100396692753,-5.05408650042227E-07,-0.104405894875526,-0.117867052555084
853,-0.0471152849495411,-0.0463072471320629,-0.0971910953521729,-4.9522230938237E-07,-0.103003017604351,-0.115801237523556
854,-0.0425771214067936,-0.0415881909430027,-0.0935698971152306,-4.87411227823031E-07,-0.103774279356003,-0.1143514290452
855,-0.0389429330825806,-0.0374986454844475,-0.0916075482964516,-4.8250331019517E-07,-0.105796404182911,-0.112601093947887
856,-0.0378419980406761,-0.0359783247113228,-0.0939090326428413,-4.79498623917607E-07,-0.110196113586426,-0.113264285027981
857,-0.0413395762443542,-0.0391298346221447,-0.1023800522089,-4.76388891001989E-07,-0.117781095206738,-0.119216032326221
858,-0.0462077222764492,-0.0438717678189278,-0.112427778542042,-4.71223671638654E-07,-0.125607654452324,-0.12710228562355
859,-0.0451533645391464,-0.0421494655311108,-0.115633085370064,-4.63157959984528E-07,-0.129381358623505,-0.128131777048111
860,-0.0391526147723198,-0.0346866138279438,-0.11324705183506,-4.5291682226889E-07,-0.130182668566704,-0.123152256011963
861,-0.035418838262558,-0.0299698859453201,-0.113413028419018,-4.42421224988721E-07,-0.132083043456078,-0.120916068553925
862,-0.036092784255743,-0.030811307951808,-0.118333846330643,-4.33767866070411E-07,-0.136015027761459,-0.123893097043037
863,-0.0399345755577087,-0.0357314497232437,-0.125879719853401,-4.28105153105207E-07,-0.140841260552406,-0.130613803863525
864,-0.0454570613801479,-0.0426239930093288,-0.133348375558853,-4.25008948923278E-07,-0.145134463906288,-0.139300674200058
865,-0.0503140948712826,-0.0484045632183552,-0.138208657503128,-4.22698377633424E-07,-0.147617563605309,-0.147023767232895
866,-0.0528270676732063,-0.0513368882238865,-0.140161976218224,-4.18982551764202E-07,-0.148061320185661,-0.152090430259705
867,-0.0523694977164268,-0.0505334548652172,-0.139534473419189,-4.12434673080497E-07,-0.146577224135399,-0.153095155954361
868,-0.0494272410869598,-0.0459241271018982,-0.136321857571602,-4.031635114643E-07,-0.143229648470879,-0.149314790964127
869,-0.0447371080517769,-0.0386221632361412,-0.130845412611961,-3.92764547996194E-07,-0.138322740793228,-0.14195442199707
870,-0.0386660173535347,-0.0298916213214397,-0.124000564217567,-3.83471075338093E-07,-0.132569193840027,-0.133189722895622
871,-0.0358479134738445,-0.0251321569085121,-0.121141709387302,-3.76957927983312E-07,-0.128937259316444,-0.129588082432747
872,-0.0409266650676727,-0.0291151590645313,-0.126908883452415,-3.73438865608478E-07,-0.129864752292633,-0.135737746953964
873,-0.0490647703409195,-0.0363515317440033,-0.135428220033646,-3.71545468169643E-07,-0.132403671741486,-0.144079968333244
874,-0.0537684671580791,-0.040087565779686,-0.13918836414814,-3.69055896953796E-07,-0.133066564798355,-0.146003037691116
875,-0.0555451661348343,-0.0414605997502804,-0.138589695096016,-3.6408584946912E-07,-0.132134944200516,-0.142900541424751
876,-0.0548425577580929,-0.0412371829152107,-0.134128123521805,-3.5610219129012E-07,-0.128914073109627,-0.13717882335186
877,-0.049082163721323,-0.0360792838037014,-0.123460672795773,-3.46213710145094E-07,-0.121775880455971,-0.1268520206213
878,-0.0410279221832752,-0.0283858850598335,-0.110763065516949,-3.36579830673145E-07,-0.113782234489918,-0.115007020533085
879,-0.0380138345062733,-0.0263614375144243,-0.105235241353512,-3.2925257187344E-07,-0.109819993376732,-0.10985528677702
880,-0.0409215949475765,-0.0309153627604246,-0.108083114027977,-3.2507361424905E-07,-0.109562814235687,-0.11174314469099
881,-0.0427181608974934,-0.033474825322628,-0.110604733228683,-3.23220120890255E-07,-0.108092449605465,-0.111733518540859
882,-0.0379212833940983,-0.0277841947972775,-0.105455048382282,-3.21644563427981E-07,-0.102008052170277,-0.103473983705044
883,-0.0300895739346743,-0.0184859149158001,-0.0960291177034378,-3.18174102176272E-07,-0.093919150531292,-0.091761015355587
884,-0.026064632460475,-0.0135892704129219,-0.0899830833077431,-3.11678007847149E-07,-0.0886766687035561,-0.0847527012228966
885,-0.0266128536313772,-0.0138875721022487,-0.0880969762802124,-3.02675999819257E-07,-0.0869693979620934,-0.0824830159544945
886,-0.0295247547328472,-0.0167643129825592,-0.0879373326897621,-2.9305900284271E-07,-0.0872397050261498,-0.0815620869398117
887,-0.0324535332620144,-0.0192409604787827,-0.0872877240180969,-2.8507284355328E-07,-0.0877504050731659,-0.0792474448680878
888,-0.0332547873258591,-0.0189513340592384,-0.0841481164097786,-2.80111180472886E-07,-0.0866935029625893,-0.0743081793189049
889,-0.0321751423180103,-0.0169205702841282,-0.0791067183017731,-2.7796735935226E-07,-0.0837606266140938,-0.0690886527299881
890,-0.029583090916276,-0.0138866035267711,-0.0724205523729324,-2.76946991561999E-07,-0.0787971019744873,-0.0643118992447853
891,-0.0281192529946566,-0.012693002820015,-0.0664706379175186,-2.74780347808701E-07,-0.073225773870945,-0.0615681000053883
892,-0.0309655107557774,-0.0170096345245838,-0.0650339797139168,-2.69843098976708E-07,-0.0695578455924988,-0.0634733065962791
893,-0.0352950915694237,-0.0237113423645496,-0.0657035261392593,-2.62027924691211E-07,-0.0668999254703522,-0.066767193377018
894,-0.0374874025583267,-0.0285604726523161,-0.0642869248986244,-2.52799083000355E-07,-0.0630355849862099,-0.0673832073807716
895,-0.0380549132823944,-0.0315715670585632,-0.0605173893272877,-2.44402059479398E-07,-0.0578264705836773,-0.0650444701313972
896,-0.0387279950082302,-0.0339017547667027,-0.0562933646142483,-2.38654763506929E-07,-0.052606325596571,-0.0611591376364231
897,-0.0377495214343071,-0.0332935564219952,-0.050144799053669,-2.35971896245246E-07,-0.0468557476997375,-0.0544872991740704
898,-0.0328736193478107,-0.0280137956142426,-0.0396701283752918,-2.35146288218857E-07,-0.0388533398509026,-0.0440894514322281
899,-0.0263656880706549,-0.0218947101384401,-0.0280227307230234,-2.34002868637617E-07,-0.0295191965997219,-0.0340181849896908
900,-0.0200102459639311,-0.0169822759926319,-0.0178750641644001,-2.30570904591332E-07,-0.0205645300447941,-0.0257390048354864
901,-0.016108063980937,-0.0138525785878301,-0.0110971927642822,-2.2414214129185E-07,-0.0138699291273952,-0.0194342974573374
902,-0.0176762286573648,-0.0140271494165063,-0.00998558476567268,-2.15646380752332E-07,-0.0106160650029778,-0.0170869696885347
903,-0.0214504022151232,-0.0146449916064739,-0.0105860391631722,-2.071448506058E-07,-0.00842606462538242,-0.0155379716306925
904,-0.0218149647116661,-0.0116032576188445,-0.00659613125026226,-2.00717551024354E-07,-0.00440595019608736,-0.00899522937834263
905,-0.0198122020810843,-0.00726426672190428,0.000484415213577449,-1.97345499941548E-07,0.000124613958178088,0.000692414585500956
906,-0.0198102407157421,-0.0069838585332036,0.00451345182955265,-1.96389066786651E-07,0.00200952845625579,0.00668040057644248
907,-0.020835530012846,-0.0098066134378314,0.00545211089774966,-1.95939932723377E-07,0.00191214319784194,0.00878019817173481
908,-0.0209801606833935,-0.0128205139189959,0.00583755597472191,-1.93853111341014E-07,0.00182161189150065,0.00965213589370251
909,-0.0229996889829636,-0.0180494301021099,0.00403357483446598,-1.8890067110533E-07,0.00119051127694547,0.00736728217452765
910,-0.0270019788295031,-0.0250139441341162,0.000949497043620795,-1.81425917844535E-07,0.000467426056275144,0.0031860051676631
911,-0.0279190968722105,-0.0279448851943016,0.00197478872723877,-1.73149572901821E-07,0.00220282888039947,0.00369829614646733
912,-0.0239452477544546,-0.0250044036656618,0.00824281107634306,-1.66236631571337E-07,0.00678420579060912,0.0107357436791062
913,-0.0190541744232178,-0.0209012515842915,0.0153379356488585,-1.62130433523089E-07,0.0121932262554765,0.0193764343857765
914,-0.0171352289617062,-0.0203688833862543,0.0195681974291801,-1.60782036573437E-07,0.0178696811199188,0.0243389122188091
915,-0.0172641929239035,-0.0225831903517246,0.0218962039798498,-1.60686695949153E-07,0.0253365226089954,0.0253260564059019
916,-0.0158587098121643,-0.0232294034212828,0.0254743415862322,-1.59702437940723E-07,0.0344602055847645,0.026356028392911
917,-0.0120134558528662,-0.0207425765693188,0.0306764338165522,-1.56205146595312E-07,0.0424752794206142,0.0298896227031946
918,-0.00782867986708879,-0.0172251462936401,0.0356059558689594,-1.49956917994132E-07,0.0474119894206524,0.0345919951796532
919,-0.00452956883236766,-0.0141134783625603,0.0398738123476505,-1.42222944532477E-07,0.0497630722820759,0.0386508852243423
920,-0.00211714650504291,-0.0113634709268808,0.0438838675618172,-1.35080099994411E-07,0.0506165288388729,0.0409325957298279
921,-0.000778057903517038,-0.0091652050614357,0.0468841232359409,-1.30294878886161E-07,0.0504465959966183,0.0409213975071907
922,-0.000561887107323855,-0.00802015978842974,0.0477438569068909,-1.28377337205166E-07,0.049292366951704,0.0394797027111053
923,-0.00283826049417257,-0.00992714613676071,0.0447437204420567,-1.28317793723909E-07,0.0461332984268665,0.0363630913197994
924,-0.00819038692861795,-0.0157455820590258,0.0380871593952179,-1.28142247035612E-07,0.0410626567900181,0.031380582600832
925,-0.0137321995571256,-0.022262379527092,0.0318465642631054,-1.25980690768301E-07,0.0369886234402657,0.0270792040973902
926,-0.0160467103123665,-0.0254393462091684,0.0300626568496227,-1.21070002023771E-07,0.0366182401776314,0.0267490167170763
927,-0.0130332885310054,-0.0227177180349827,0.0345425307750702,-1.14153280605933E-07,0.0405575931072235,0.0326820611953735
928,-0.00667792093008757,-0.0163249205797911,0.0425168313086033,-1.07066519206001E-07,0.0467875637114048,0.0418183989822865
929,-0.00244343257509172,-0.0122955497354269,0.0478637106716633,-1.01742372748959E-07,0.0515996739268303,0.0474464744329453
930,-0.0022422329057008,-0.0123957609757781,0.0485097952187061,-9.91716362364059E-08,0.053163580596447,0.0483157746493816
931,-0.00318530201911926,-0.0137484092265368,0.0470704361796379,-9.88807471458131E-08,0.0530086494982243,0.0479682423174381
932,-0.00168085470795631,-0.0130789401009679,0.0471271574497223,-9.92008182265636E-08,0.0537765473127365,0.0497773922979832
933,0.00113562762271613,-0.0112543618306518,0.0483037419617176,-9.81756542728363E-08,0.0552551485598087,0.0525882504880428
934,0.00167661206796765,-0.0112032918259501,0.0480151921510696,-9.46145490843264E-08,0.0558910667896271,0.0531616806983948
935,0.00154868757817894,-0.0106429802253842,0.0487424992024899,-8.87229703039338E-08,0.0568438209593296,0.053753063082695
936,0.00491170305758715,-0.0052555026486516,0.0544260330498219,-8.19769567783624E-08,0.0601877234876156,0.0587959922850132
937,0.0128873493522406,0.00538037065416574,0.06533382833004,-7.63168372941436E-08,0.0671538189053535,0.0686760768294334
938,0.0212283916771412,0.0156764127314091,0.0766923874616623,-7.31007858689736E-08,0.0758445635437965,0.0777009800076485
939,0.0241334717720747,0.0191678162664175,0.0820966362953186,-7.23826545367956E-08,0.0815936326980591,0.0796528905630112
940,0.0199164766818285,0.0148520916700363,0.078924223780632,-7.28980680264613E-08,0.0817285776138306,0.0739184021949768
941,0.0116208698600531,0.00654974672943354,0.0698586404323578,-7.27581266346533E-08,0.0776218995451927,0.0646848827600479
942,0.00444562174379826,-0.000712978828232735,0.0610648058354855,-7.04699729681124E-08,0.0734224542975426,0.0572418980300426
943,0.00183533714152873,-0.00393178639933467,0.0574266836047173,-6.57326424402527E-08,0.0725004225969315,0.0545878447592258
944,0.00500736571848392,-0.00178504968062043,0.0609380900859833,-5.9583669553831E-08,0.0757882297039032,0.058120034635067
945,0.0106216901913285,0.00260708713904023,0.0673121809959412,-5.38258397853042E-08,0.0803114846348763,0.0642193704843521
946,0.0142148640006781,0.0051061837002635,0.0706519335508347,-5.00506054379457E-08,0.0823159515857697,0.0677792951464653
947,0.0149003025144339,0.00530140986666083,0.0703893676400185,-4.87872924281874E-08,0.0811732038855553,0.0681377798318863
948,0.0131241288036108,0.0038612971547991,0.0680228248238564,-4.92329519374834E-08,0.0780227556824684,0.0661538913846016
949,0.0122999390587211,0.00396716827526689,0.0672868490219116,-4.97002439203698E-08,0.0761302784085274,0.0655634328722954
950,0.0139168677851558,0.00639522820711136,0.0693119838833809,-4.85336819622262E-08,0.0768609046936035,0.0676835626363754
951,0.0143754575401545,0.00716597493737936,0.0701611042022705,-4.49964794313473E-08,0.0776918083429337,0.0684367790818214
952,0.0127251166850328,0.0058263661339879,0.069118857383728,-3.96527504165078E-08,0.0774779170751572,0.0673024654388428
953,0.0132555700838566,0.00748737715184689,0.0708748325705528,-3.40470300841389E-08,0.0782834365963936,0.0694248154759407
954,0.0180349424481392,0.0141600640490651,0.0772466212511063,-2.98627433892307E-08,0.081324428319931,0.0765742957592011
955,0.0216281544417143,0.0190684422850609,0.0817190408706665,-2.80180039169409E-08,0.0834728181362152,0.0814340859651566
956,0.0218617897480726,0.0193985216319561,0.0818629637360573,-2.81844467764358E-08,0.083413764834404,0.0810066983103752
957,0.0238103903830051,0.0212550647556782,0.0839158222079277,-2.89809936049323E-08,0.0842315927147865,0.0820717141032219
958,0.0277411490678787,0.0259638819843531,0.0885266959667206,-2.87289640965582E-08,0.0860004276037216,0.0862811654806137
959,0.0302328299731016,0.0302200615406036,0.0915740579366684,-2.63556270141407E-08,0.0864518359303474,0.0901813581585884
960,0.031926654279232,0.033889327198267,0.0934440866112709,-2.19597033890295E-08,0.0864219292998314,0.0937968045473099
961,0.0330736823379993,0.0362773537635803,0.0944962278008461,-1.6740740349519E-08,0.0868600383400917,0.0962790846824646
962,0.0319878496229649,0.0355214476585388,0.093351274728775,-1.23397647655565E-08,0.0868229046463966,0.0953577533364296
963,0.0300831105560064,0.0334766134619713,0.0918875709176064,-9.95347004817404E-09,0.0866700261831284,0.0931089073419571
964,0.0298861749470234,0.0336506478488445,0.0926290154457092,-9.70009672585093E-09,0.0872180983424187,0.0936250612139702
965,0.0308526661247015,0.0362967774271965,0.094871774315834,-1.05728537036498E-08,0.0879090800881386,0.0971458777785301
966,0.0299163945019245,0.0378811694681644,0.0955732613801956,-1.09965982986182E-08,0.0876825898885727,0.0992225557565689
967,0.0256176292896271,0.0357838198542595,0.0928912311792374,-9.68002122903044E-09,0.0864654779434204,0.0965321883559227
968,0.0203537661582232,0.0316157080233097,0.0884863510727882,-6.3021809992847E-09,0.0853193178772926,0.0913887172937393
969,0.0170633718371391,0.0282538533210754,0.0849095657467842,-1.66843538984551E-09,0.0851897969841957,0.0874885246157646
970,0.0146005572751164,0.0244747828692198,0.0807805061340332,2.73914579906887E-09,0.0849639475345612,0.0829606205224991
971,0.0110693424940109,0.0186282210052013,0.0744991153478622,5.56625501246799E-09,0.0833114236593246,0.0754429697990417
